SpectraSuite Datei
++++++++++++++++++++++++++++++++++++
Datum: Mon Mar 09 11:33:53 CET 2020
Benutzer: Lichtquellen1
Dark-Spektrum vorhanden: Ja
Referenz-Spektrum vorhanden: Nein
Zahl der probierten Teilspektren: 1
Spektrometer: USB4F05832
Integrationszeit (usec): 10000 (USB4F05832)
Spektren Durchschnitt berechnet: 400 (USB4F05832)
Boxcar Glättung: 0 (USB4F05832)
Dunkelstromkorrektur: Nein (USB4F05832)
Puls/Lampe aktiviert: Nein (USB4F05832)
Correct for Detector Non-linearity: Nein (USB4F05832)
Streulichtkorrektur: Nein (USB4F05832)
Anzahl Pixel in verarbeitetem Spektrum: 3648
>>>>>Begin Processed Spectral Data<<<<<
177,54	1,86
177,75	1,86
177,97	1,86
178,19	-0,15
178,41	2,25
178,63	1,59
178,85	4,44
179,07	0,02
179,29	-1,19
179,51	4,09
179,73	1,04
179,95	2,05
180,17	7,27
180,39	-1,78
180,61	6,11
180,83	2,29
181,05	0,41
181,27	1,57
181,49	0,38
181,71	2,22
181,92	2,28
182,14	1,17
182,36	-2,94
182,58	-0,02
182,80	1,59
183,02	4,99
183,24	4,35
183,46	-1,05
183,68	3,07
183,90	-1,98
184,12	-1,13
184,34	5,70
184,56	2,64
184,78	1,39
185,00	-0,18
185,21	7,73
185,43	2,46
185,65	5,37
185,87	5,91
186,09	2,18
186,31	4,75
186,53	3,00
186,75	-0,63
186,97	-0,63
187,19	2,50
187,41	3,50
187,63	2,48
187,84	2,90
188,06	3,27
188,28	5,48
188,50	4,32
188,72	2,56
188,94	3,00
189,16	0,60
189,38	2,28
189,60	-2,05
189,82	0,87
190,03	3,49
190,25	0,35
190,47	1,88
190,69	4,24
190,91	-1,59
191,13	1,73
191,35	3,93
191,57	0,37
191,79	3,14
192,01	1,15
192,22	-0,68
192,44	0,36
192,66	5,91
192,88	1,39
193,10	-2,36
193,32	0,35
193,54	0,15
193,76	2,12
193,98	0,04
194,19	-1,02
194,41	1,68
194,63	2,92
194,85	3,29
195,07	7,29
195,29	-0,77
195,51	0,30
195,73	-1,39
195,94	0,20
196,16	-0,50
196,38	-0,97
196,60	3,46
196,82	1,27
197,04	4,29
197,26	3,11
197,48	0,51
197,69	-0,25
197,91	4,13
198,13	-2,57
198,35	4,86
198,57	-1,82
198,79	2,39
199,01	4,39
199,22	2,61
199,44	-2,25
199,66	-0,56
199,88	3,38
200,10	4,36
200,32	4,13
200,54	2,33
200,75	4,01
200,97	-0,25
201,19	4,78
201,41	2,38
201,63	4,76
201,85	1,34
202,06	4,39
202,28	5,03
202,50	4,38
202,72	1,61
202,94	0,04
203,16	3,70
203,38	0,66
203,59	-1,40
203,81	0,98
204,03	4,91
204,25	2,19
204,47	4,28
204,69	-2,04
204,90	0,88
205,12	1,85
205,34	5,77
205,56	-1,30
205,78	-6,25
206,00	3,38
206,21	5,72
206,43	1,12
206,65	1,85
206,87	1,36
207,09	6,33
207,30	0,27
207,52	1,45
207,74	-3,45
207,96	3,61
208,18	5,37
208,40	1,65
208,61	3,80
208,83	-1,80
209,05	0,50
209,27	6,43
209,49	3,18
209,70	5,16
209,92	7,31
210,14	5,11
210,36	2,98
210,58	6,01
210,79	-2,14
211,01	3,52
211,23	5,15
211,45	3,68
211,67	3,19
211,88	-2,52
212,10	4,62
212,32	-2,06
212,54	8,57
212,76	3,16
212,97	3,60
213,19	0,91
213,41	1,81
213,63	3,26
213,85	1,73
214,06	1,99
214,28	2,69
214,50	-2,04
214,72	2,44
214,94	5,40
215,15	2,97
215,37	7,80
215,59	0,60
215,81	4,44
216,02	2,36
216,24	7,91
216,46	2,78
216,68	0,36
216,90	3,00
217,11	2,02
217,33	2,00
217,55	3,78
217,77	2,81
217,98	3,35
218,20	0,21
218,42	3,06
218,64	-2,24
218,85	0,60
219,07	2,67
219,29	5,67
219,51	1,13
219,73	2,06
219,94	6,46
220,16	2,73
220,38	3,11
220,60	-0,49
220,81	-1,66
221,03	-3,77
221,25	2,37
221,47	7,33
221,68	1,15
221,90	2,06
222,12	3,55
222,34	4,21
222,55	-2,85
222,77	3,24
222,99	-1,70
223,21	4,25
223,42	0,87
223,64	2,96
223,86	1,24
224,08	0,83
224,29	-0,90
224,51	-1,33
224,73	1,79
224,94	1,78
225,16	-1,33
225,38	7,63
225,60	4,18
225,81	-3,33
226,03	3,08
226,25	2,89
226,47	3,25
226,68	3,99
226,90	1,05
227,12	2,84
227,33	1,21
227,55	6,75
227,77	-2,36
227,99	0,88
228,20	3,90
228,42	2,35
228,64	2,40
228,86	5,93
229,07	4,05
229,29	2,95
229,51	4,62
229,72	3,77
229,94	-0,04
230,16	2,79
230,38	-1,02
230,59	1,59
230,81	-0,45
231,03	1,88
231,24	0,55
231,46	0,72
231,68	4,31
231,89	2,14
232,11	3,48
232,33	2,30
232,55	1,69
232,76	4,59
232,98	4,64
233,20	-1,51
233,41	4,80
233,63	1,05
233,85	-2,49
234,06	-1,48
234,28	1,52
234,50	1,00
234,71	4,86
234,93	-0,23
235,15	2,39
235,37	5,13
235,58	1,99
235,80	2,39
236,02	1,08
236,23	2,33
236,45	0,10
236,67	4,05
236,88	2,41
237,10	3,15
237,32	3,97
237,53	4,03
237,75	4,96
237,97	0,54
238,18	4,53
238,40	2,95
238,62	2,10
238,83	3,78
239,05	1,41
239,27	0,43
239,48	3,23
239,70	2,98
239,92	5,59
240,13	2,26
240,35	-2,44
240,57	-1,20
240,78	1,61
241,00	5,06
241,22	1,67
241,43	3,26
241,65	4,63
241,87	1,72
242,08	2,65
242,30	-1,99
242,52	3,79
242,73	2,12
242,95	2,32
243,16	2,65
243,38	0,80
243,60	5,53
243,81	3,39
244,03	2,96
244,25	3,91
244,46	-0,13
244,68	5,03
244,90	7,35
245,11	4,12
245,33	2,98
245,55	6,99
245,76	-1,27
245,98	-0,94
246,19	2,80
246,41	2,98
246,63	0,18
246,84	-1,09
247,06	-0,71
247,28	3,11
247,49	3,64
247,71	2,25
247,92	1,36
248,14	2,95
248,36	-1,14
248,57	4,16
248,79	2,66
249,01	0,77
249,22	2,86
249,44	3,97
249,65	-1,88
249,87	3,13
250,09	3,40
250,30	-0,03
250,52	2,15
250,73	3,63
250,95	3,62
251,17	0,71
251,38	4,98
251,60	5,23
251,81	7,85
252,03	2,45
252,25	0,12
252,46	-1,07
252,68	-1,73
252,89	-1,22
253,11	3,35
253,33	2,79
253,54	8,78
253,76	0,16
253,97	2,19
254,19	5,24
254,41	4,26
254,62	2,93
254,84	2,44
255,05	2,53
255,27	1,06
255,49	-2,51
255,70	2,11
255,92	0,15
256,13	4,97
256,35	3,06
256,56	7,85
256,78	2,32
257,00	1,21
257,21	3,94
257,43	2,83
257,64	3,08
257,86	1,44
258,08	1,60
258,29	-1,48
258,51	6,41
258,72	3,95
258,94	5,73
259,15	3,05
259,37	3,37
259,59	5,79
259,80	0,99
260,02	1,17
260,23	2,81
260,45	2,33
260,66	4,03
260,88	-1,15
261,09	0,43
261,31	1,21
261,53	-0,90
261,74	2,90
261,96	0,28
262,17	-0,22
262,39	3,85
262,60	0,89
262,82	-2,33
263,03	2,42
263,25	-1,18
263,46	0,45
263,68	3,64
263,90	3,75
264,11	4,58
264,33	5,46
264,54	1,62
264,76	2,22
264,97	0,79
265,19	-2,70
265,40	-1,74
265,62	5,04
265,83	4,63
266,05	-2,89
266,26	4,21
266,48	3,58
266,70	4,62
266,91	4,65
267,13	4,88
267,34	1,97
267,56	2,04
267,77	2,24
267,99	4,30
268,20	-0,01
268,42	6,92
268,63	4,59
268,85	2,65
269,06	4,90
269,28	1,93
269,49	4,21
269,71	6,29
269,92	-0,46
270,14	4,57
270,35	3,93
270,57	-1,36
270,78	2,54
271,00	3,58
271,21	-0,82
271,43	5,50
271,64	4,46
271,86	0,11
272,07	3,05
272,29	3,86
272,50	1,46
272,72	0,26
272,93	3,28
273,15	6,03
273,36	4,44
273,58	0,08
273,79	2,28
274,01	6,35
274,22	2,19
274,44	2,21
274,65	-0,42
274,87	4,13
275,08	0,15
275,30	4,05
275,51	7,32
275,73	2,12
275,94	0,63
276,16	4,14
276,37	3,36
276,59	5,61
276,80	1,65
277,02	1,78
277,23	8,12
277,45	1,16
277,66	3,23
277,88	0,95
278,09	-0,13
278,30	5,18
278,52	2,88
278,73	2,41
278,95	5,54
279,16	-1,22
279,38	-2,12
279,59	-1,03
279,81	1,46
280,02	5,54
280,24	4,39
280,45	2,56
280,67	3,29
280,88	0,06
281,09	3,44
281,31	1,78
281,52	1,72
281,74	4,19
281,95	4,91
282,17	1,81
282,38	-0,85
282,60	-5,18
282,81	1,79
283,02	2,24
283,24	4,86
283,45	2,25
283,67	7,35
283,88	9,52
284,10	1,62
284,31	4,73
284,53	5,20
284,74	2,37
284,95	8,81
285,17	2,97
285,38	0,72
285,60	-1,78
285,81	4,68
286,03	2,11
286,24	4,35
286,45	-1,97
286,67	3,43
286,88	1,16
287,10	3,80
287,31	6,59
287,53	-1,46
287,74	3,80
287,95	5,54
288,17	5,62
288,38	-0,62
288,60	-2,28
288,81	4,59
289,02	-0,70
289,24	3,56
289,45	3,69
289,67	2,72
289,88	1,22
290,10	3,15
290,31	1,13
290,52	1,65
290,74	4,76
290,95	-0,10
291,17	3,73
291,38	1,35
291,59	2,45
291,81	3,11
292,02	0,50
292,24	1,49
292,45	0,35
292,66	1,76
292,88	3,93
293,09	5,40
293,31	1,65
293,52	-0,36
293,73	2,71
293,95	1,90
294,16	2,00
294,37	5,01
294,59	4,43
294,80	0,82
295,02	3,06
295,23	3,06
295,44	6,25
295,66	7,52
295,87	-1,31
296,09	0,93
296,30	-1,17
296,51	4,05
296,73	0,16
296,94	7,13
297,15	2,37
297,37	3,65
297,58	3,68
297,79	2,27
298,01	0,88
298,22	4,96
298,44	9,36
298,65	-0,68
298,86	4,41
299,08	1,62
299,29	-0,28
299,50	-0,73
299,72	5,66
299,93	8,09
300,14	6,10
300,36	2,77
300,57	3,49
300,79	0,20
301,00	1,08
301,21	4,73
301,43	4,01
301,64	3,11
301,85	4,33
302,07	2,38
302,28	0,42
302,49	4,89
302,71	4,30
302,92	-1,43
303,13	3,58
303,35	4,36
303,56	4,64
303,77	-1,94
303,99	5,06
304,20	-0,95
304,41	0,42
304,63	4,36
304,84	0,01
305,05	7,77
305,27	5,07
305,48	0,19
305,69	2,77
305,91	1,57
306,12	3,55
306,33	6,46
306,55	-1,19
306,76	5,42
306,97	-0,83
307,19	1,73
307,40	3,58
307,61	4,33
307,82	2,77
308,04	1,54
308,25	1,79
308,46	1,53
308,68	3,81
308,89	1,30
309,10	2,11
309,32	4,53
309,53	5,60
309,74	4,83
309,96	3,45
310,17	3,55
310,38	2,71
310,59	-1,41
310,81	2,08
311,02	-1,39
311,23	1,25
311,45	5,65
311,66	1,21
311,87	-3,55
312,09	3,54
312,30	-0,30
312,51	3,02
312,72	3,95
312,94	3,17
313,15	-0,93
313,36	2,62
313,58	3,97
313,79	3,76
314,00	1,61
314,21	4,09
314,43	2,53
314,64	2,43
314,85	3,61
315,06	1,53
315,28	3,27
315,49	3,40
315,70	1,25
315,92	3,55
316,13	1,44
316,34	-0,69
316,55	4,22
316,77	2,11
316,98	2,31
317,19	-0,99
317,40	1,25
317,62	2,26
317,83	6,90
318,04	1,87
318,25	1,99
318,47	0,80
318,68	2,79
318,89	3,16
319,11	2,64
319,32	0,14
319,53	5,10
319,74	4,23
319,96	3,15
320,17	2,18
320,38	-4,42
320,59	3,13
320,81	3,57
321,02	1,91
321,23	4,44
321,44	3,30
321,65	-1,06
321,87	5,87
322,08	1,45
322,29	2,68
322,50	1,99
322,72	-2,59
322,93	0,91
323,14	2,22
323,35	-3,59
323,57	4,69
323,78	-0,98
323,99	1,44
324,20	0,81
324,41	6,30
324,63	2,71
324,84	3,05
325,05	-1,30
325,26	-1,51
325,48	2,29
325,69	2,61
325,90	-0,23
326,11	7,36
326,32	3,01
326,54	3,01
326,75	-3,29
326,96	1,45
327,17	4,53
327,39	2,76
327,60	3,24
327,81	-0,64
328,02	-1,40
328,23	0,84
328,45	-2,93
328,66	6,17
328,87	0,85
329,08	0,67
329,29	-3,27
329,51	-0,89
329,72	-2,91
329,93	2,07
330,14	-1,89
330,35	2,39
330,56	0,96
330,78	6,72
330,99	2,41
331,20	0,49
331,41	3,03
331,62	2,11
331,84	-1,64
332,05	0,71
332,26	1,21
332,47	1,92
332,68	4,12
332,90	12,90
333,11	20,00
333,32	24,49
333,53	31,76
333,74	42,95
333,95	45,97
334,17	37,93
334,38	33,52
334,59	34,89
334,80	24,61
335,01	23,74
335,22	22,11
335,44	15,84
335,65	15,68
335,86	13,95
336,07	11,23
336,28	14,65
336,49	13,61
336,71	11,07
336,92	6,97
337,13	5,07
337,34	4,03
337,55	5,53
337,76	3,92
337,97	-0,42
338,19	-0,81
338,40	2,49
338,61	3,43
338,82	-2,64
339,03	0,33
339,24	4,16
339,45	2,32
339,67	-2,96
339,88	0,81
340,09	5,17
340,30	0,75
340,51	2,28
340,72	3,94
340,93	4,04
341,15	5,00
341,36	2,15
341,57	-3,81
341,78	4,07
341,99	5,29
342,20	2,01
342,41	-1,46
342,62	1,35
342,84	2,36
343,05	2,92
343,26	0,48
343,47	3,37
343,68	-0,73
343,89	2,49
344,10	0,98
344,31	-0,21
344,53	1,05
344,74	5,10
344,95	3,40
345,16	1,16
345,37	5,40
345,58	5,58
345,79	3,46
346,00	0,27
346,21	1,19
346,42	-0,26
346,64	-0,12
346,85	3,73
347,06	-4,39
347,27	4,78
347,48	3,89
347,69	5,13
347,90	2,92
348,11	3,89
348,32	7,96
348,53	7,80
348,75	0,09
348,96	4,03
349,17	3,39
349,38	-2,58
349,59	1,97
349,80	5,17
350,01	6,21
350,22	3,77
350,43	4,89
350,64	2,34
350,85	1,47
351,06	1,62
351,28	3,29
351,49	1,89
351,70	-0,76
351,91	1,06
352,12	2,66
352,33	6,43
352,54	1,03
352,75	3,85
352,96	2,17
353,17	1,53
353,38	3,56
353,59	-4,61
353,80	1,09
354,01	1,79
354,22	1,51
354,44	2,51
354,65	5,06
354,86	-4,99
355,07	-0,40
355,28	4,86
355,49	-0,47
355,70	-0,46
355,91	6,55
356,12	4,10
356,33	5,75
356,54	-0,43
356,75	3,66
356,96	0,50
357,17	-1,12
357,38	-0,28
357,59	1,05
357,80	2,80
358,01	3,45
358,22	3,11
358,43	7,70
358,64	3,12
358,85	4,49
359,07	3,67
359,28	2,75
359,49	7,83
359,70	2,77
359,91	1,46
360,12	-0,82
360,33	3,55
360,54	-1,56
360,75	7,38
360,96	2,76
361,17	4,72
361,38	4,72
361,59	9,10
361,80	1,86
362,01	1,79
362,22	4,50
362,43	5,85
362,64	6,03
362,85	0,79
363,06	4,14
363,27	1,60
363,48	1,74
363,69	3,08
363,90	1,33
364,11	4,37
364,32	4,67
364,53	2,14
364,74	4,73
364,95	0,97
365,16	3,92
365,37	4,55
365,58	2,42
365,79	2,58
366,00	1,22
366,21	5,68
366,42	6,88
366,63	7,42
366,84	0,38
367,05	1,31
367,26	2,74
367,47	0,02
367,68	-1,37
367,89	3,91
368,10	3,05
368,31	2,13
368,52	3,36
368,73	2,50
368,94	1,99
369,15	2,58
369,36	0,90
369,57	6,43
369,78	5,77
369,99	6,39
370,20	6,59
370,40	0,61
370,61	3,51
370,82	0,05
371,03	1,01
371,24	5,04
371,45	0,72
371,66	4,43
371,87	3,85
372,08	3,99
372,29	0,36
372,50	4,67
372,71	3,86
372,92	5,05
373,13	1,94
373,34	6,61
373,55	-0,14
373,76	-2,52
373,97	1,27
374,18	5,97
374,39	4,02
374,60	4,91
374,81	6,42
375,01	3,81
375,22	5,35
375,43	5,93
375,64	1,24
375,85	5,42
376,06	1,13
376,27	3,80
376,48	4,09
376,69	3,13
376,90	6,99
377,11	1,26
377,32	3,59
377,53	1,17
377,74	0,51
377,94	2,64
378,15	2,34
378,36	-0,27
378,57	6,36
378,78	2,80
378,99	2,62
379,20	2,06
379,41	5,39
379,62	1,04
379,83	5,44
380,04	7,66
380,25	3,40
380,45	2,02
380,66	5,46
380,87	3,83
381,08	2,65
381,29	5,80
381,50	3,60
381,71	-3,64
381,92	2,87
382,13	3,58
382,34	-0,37
382,55	3,13
382,75	-1,54
382,96	4,32
383,17	6,18
383,38	2,86
383,59	-2,67
383,80	6,39
384,01	4,64
384,22	3,80
384,43	-1,57
384,63	3,72
384,84	1,94
385,05	2,09
385,26	-1,44
385,47	5,30
385,68	3,21
385,89	0,12
386,10	2,12
386,30	3,58
386,51	-1,01
386,72	4,44
386,93	1,15
387,14	3,53
387,35	4,51
387,56	2,25
387,77	1,03
387,97	5,87
388,18	2,94
388,39	-0,25
388,60	0,40
388,81	4,15
389,02	7,76
389,23	6,68
389,43	2,54
389,64	1,93
389,85	3,31
390,06	0,54
390,27	-1,60
390,48	7,58
390,69	-1,12
390,89	5,13
391,10	3,01
391,31	0,83
391,52	3,82
391,73	1,70
391,94	3,72
392,14	4,13
392,35	3,64
392,56	3,29
392,77	1,11
392,98	2,51
393,19	1,79
393,39	0,47
393,60	2,73
393,81	1,67
394,02	0,67
394,23	1,95
394,44	3,23
394,64	0,34
394,85	5,37
395,06	-1,06
395,27	3,70
395,48	0,60
395,69	2,81
395,89	4,07
396,10	2,86
396,31	5,28
396,52	1,60
396,73	0,91
396,93	0,98
397,14	3,21
397,35	-0,39
397,56	1,40
397,77	4,84
397,97	4,19
398,18	5,79
398,39	3,41
398,60	0,31
398,81	1,44
399,01	7,53
399,22	0,70
399,43	0,54
399,64	2,33
399,85	2,70
400,05	-0,79
400,26	3,04
400,47	0,78
400,68	7,61
400,89	3,90
401,09	4,75
401,30	7,02
401,51	-0,20
401,72	0,66
401,93	-0,86
402,13	1,21
402,34	2,61
402,55	4,99
402,76	-0,20
402,96	0,46
403,17	2,79
403,38	4,96
403,59	0,04
403,80	3,05
404,00	4,14
404,21	3,36
404,42	3,03
404,63	7,52
404,83	-1,70
405,04	2,00
405,25	1,68
405,46	1,67
405,66	3,04
405,87	2,86
406,08	1,65
406,29	3,19
406,49	0,22
406,70	1,52
406,91	-0,01
407,12	4,32
407,32	8,26
407,53	3,27
407,74	4,35
407,95	3,90
408,15	1,48
408,36	0,31
408,57	-3,35
408,78	-0,82
408,98	5,92
409,19	3,13
409,40	-1,86
409,61	8,35
409,81	3,78
410,02	5,55
410,23	1,16
410,44	3,36
410,64	4,41
410,85	1,15
411,06	0,14
411,26	3,00
411,47	7,78
411,68	2,33
411,89	5,30
412,09	3,51
412,30	4,38
412,51	-1,67
412,72	2,82
412,92	3,60
413,13	1,93
413,34	-0,35
413,54	-0,69
413,75	6,07
413,96	4,28
414,17	4,01
414,37	3,76
414,58	2,10
414,79	1,17
414,99	0,88
415,20	3,73
415,41	1,10
415,61	2,17
415,82	1,91
416,03	1,61
416,24	0,27
416,44	-1,90
416,65	3,13
416,86	0,56
417,06	4,54
417,27	1,91
417,48	0,60
417,68	5,33
417,89	0,86
418,10	1,49
418,30	4,40
418,51	4,65
418,72	1,39
418,92	7,32
419,13	5,82
419,34	8,30
419,55	5,14
419,75	3,04
419,96	3,61
420,17	8,19
420,37	2,43
420,58	6,30
420,79	0,53
420,99	3,02
421,20	2,83
421,41	4,58
421,61	2,58
421,82	6,25
422,03	3,10
422,23	3,75
422,44	10,78
422,65	6,14
422,85	7,60
423,06	4,97
423,26	6,67
423,47	6,14
423,68	2,22
423,88	4,50
424,09	1,64
424,30	5,94
424,50	-0,30
424,71	3,37
424,92	1,15
425,12	3,59
425,33	6,15
425,54	-0,18
425,74	2,99
425,95	6,33
426,15	3,02
426,36	6,92
426,57	3,51
426,77	0,12
426,98	2,20
427,19	1,44
427,39	0,38
427,60	8,83
427,81	2,73
428,01	3,57
428,22	4,25
428,42	4,70
428,63	2,71
428,84	5,90
429,04	-2,47
429,25	3,49
429,45	4,41
429,66	5,55
429,87	0,05
430,07	1,20
430,28	-3,64
430,49	6,16
430,69	7,77
430,90	-0,15
431,10	6,10
431,31	7,69
431,52	2,82
431,72	6,23
431,93	3,81
432,13	3,63
432,34	4,47
432,55	-1,50
432,75	1,99
432,96	8,10
433,16	4,99
433,37	4,68
433,58	2,23
433,78	-0,50
433,99	4,35
434,19	-2,81
434,40	4,24
434,60	1,87
434,81	5,13
435,02	1,79
435,22	0,31
435,43	-2,58
435,63	3,27
435,84	5,75
436,05	5,17
436,25	3,79
436,46	2,15
436,66	1,93
436,87	5,53
437,07	3,93
437,28	5,68
437,48	1,29
437,69	6,57
437,90	-1,11
438,10	3,02
438,31	1,33
438,51	0,68
438,72	4,75
438,92	-0,74
439,13	7,53
439,34	-2,29
439,54	-0,56
439,75	-0,39
439,95	0,61
440,16	5,21
440,36	7,50
440,57	3,86
440,77	-0,06
440,98	3,94
441,18	2,69
441,39	1,12
441,60	6,39
441,80	3,97
442,01	0,95
442,21	-0,55
442,42	2,71
442,62	4,15
442,83	1,29
443,03	-4,88
443,24	5,43
443,44	2,90
443,65	3,74
443,85	3,57
444,06	6,34
444,26	1,80
444,47	-0,20
444,67	2,24
444,88	2,93
445,09	3,05
445,29	-0,65
445,50	-0,39
445,70	2,19
445,91	1,96
446,11	3,98
446,32	-0,23
446,52	3,56
446,73	1,35
446,93	3,26
447,14	2,81
447,34	6,64
447,55	2,97
447,75	-1,67
447,96	3,96
448,16	5,39
448,37	-1,17
448,57	9,77
448,78	5,62
448,98	1,85
449,19	3,29
449,39	1,88
449,60	3,12
449,80	5,16
450,01	1,77
450,21	1,88
450,42	9,90
450,62	2,39
450,83	3,73
451,03	3,82
451,23	2,09
451,44	7,21
451,64	4,29
451,85	4,23
452,05	-2,71
452,26	4,12
452,46	5,69
452,67	4,10
452,87	-0,65
453,08	6,75
453,28	7,46
453,49	3,61
453,69	1,15
453,90	0,86
454,10	9,71
454,31	3,07
454,51	2,18
454,71	1,67
454,92	4,25
455,12	2,18
455,33	5,29
455,53	3,87
455,74	5,54
455,94	5,47
456,15	2,50
456,35	6,49
456,55	2,56
456,76	3,61
456,96	5,08
457,17	2,20
457,37	2,82
457,58	4,61
457,78	3,78
457,99	2,15
458,19	1,35
458,39	5,03
458,60	1,23
458,80	4,66
459,01	1,31
459,21	2,79
459,42	2,89
459,62	3,37
459,82	2,66
460,03	1,27
460,23	7,17
460,44	3,94
460,64	-0,65
460,85	0,98
461,05	8,57
461,25	4,66
461,46	8,06
461,66	7,57
461,87	4,25
462,07	8,40
462,27	4,45
462,48	4,79
462,68	3,19
462,89	2,21
463,09	6,33
463,29	4,19
463,50	4,12
463,70	1,80
463,91	6,58
464,11	1,59
464,31	-0,90
464,52	1,01
464,72	0,40
464,93	4,23
465,13	-0,09
465,33	0,61
465,54	4,75
465,74	4,98
465,95	1,72
466,15	-2,61
466,35	0,26
466,56	3,41
466,76	0,13
466,96	-0,68
467,17	1,54
467,37	4,74
467,58	-1,02
467,78	1,22
467,98	-0,54
468,19	1,51
468,39	2,68
468,59	2,52
468,80	8,76
469,00	6,64
469,21	3,09
469,41	4,65
469,61	4,21
469,82	1,84
470,02	6,85
470,22	4,97
470,43	4,42
470,63	-1,03
470,83	4,44
471,04	1,38
471,24	3,07
471,45	0,17
471,65	0,69
471,85	5,40
472,06	3,30
472,26	5,02
472,46	6,29
472,67	-0,36
472,87	1,86
473,07	6,55
473,28	4,39
473,48	1,53
473,68	3,73
473,89	4,44
474,09	3,11
474,29	-2,11
474,50	0,37
474,70	-1,65
474,90	-1,42
475,11	2,19
475,31	-0,03
475,51	-1,10
475,72	1,53
475,92	2,12
476,12	4,37
476,33	-3,64
476,53	2,69
476,73	4,51
476,93	5,43
477,14	2,54
477,34	1,98
477,54	3,32
477,75	3,71
477,95	-0,06
478,15	-0,26
478,36	5,25
478,56	4,25
478,76	6,29
478,97	2,20
479,17	3,61
479,37	4,74
479,57	4,45
479,78	-1,96
479,98	5,53
480,18	5,49
480,39	1,06
480,59	-2,07
480,79	2,65
480,99	2,70
481,20	5,51
481,40	6,86
481,60	5,96
481,81	3,15
482,01	5,94
482,21	4,52
482,41	3,71
482,62	-0,27
482,82	7,63
483,02	-2,64
483,23	8,71
483,43	3,46
483,63	5,18
483,83	6,15
484,04	1,13
484,24	7,69
484,44	2,67
484,64	0,35
484,85	7,12
485,05	3,22
485,25	4,82
485,45	0,56
485,66	-2,91
485,86	1,29
486,06	2,70
486,26	9,55
486,47	4,68
486,67	4,35
486,87	8,53
487,07	1,40
487,28	1,26
487,48	4,02
487,68	8,44
487,88	6,40
488,09	-1,31
488,29	8,05
488,49	7,09
488,69	4,56
488,90	8,32
489,10	5,62
489,30	1,38
489,50	-0,29
489,71	3,41
489,91	2,99
490,11	6,43
490,31	2,93
490,52	0,87
490,72	4,87
490,92	4,28
491,12	6,39
491,32	2,34
491,53	1,67
491,73	2,15
491,93	1,59
492,13	6,25
492,33	0,65
492,54	7,16
492,74	4,11
492,94	8,65
493,14	1,51
493,35	1,03
493,55	-1,32
493,75	5,85
493,95	0,29
494,15	2,15
494,36	-3,81
494,56	-0,39
494,76	4,27
494,96	7,79
495,16	0,65
495,37	2,30
495,57	-0,43
495,77	2,59
495,97	0,80
496,17	0,74
496,37	6,00
496,58	4,53
496,78	0,84
496,98	4,24
497,18	3,92
497,38	2,95
497,59	2,78
497,79	7,07
497,99	2,54
498,19	5,84
498,39	3,21
498,59	3,61
498,80	4,90
499,00	2,05
499,20	7,20
499,40	7,02
499,60	8,44
499,80	14,25
500,01	17,51
500,21	21,97
500,41	23,89
500,61	24,44
500,81	26,86
501,01	25,84
501,22	23,07
501,42	18,25
501,62	12,36
501,82	12,23
502,02	11,22
502,22	10,49
502,42	8,92
502,63	10,14
502,83	8,00
503,03	11,57
503,23	10,14
503,43	4,55
503,63	4,83
503,83	6,55
504,04	8,80
504,24	6,50
504,44	9,45
504,64	4,68
504,84	7,23
505,04	6,38
505,24	4,01
505,44	4,11
505,65	4,88
505,85	2,17
506,05	6,91
506,25	5,42
506,45	4,17
506,65	2,18
506,85	2,76
507,05	4,75
507,26	3,13
507,46	6,50
507,66	1,62
507,86	0,57
508,06	0,59
508,26	2,93
508,46	12,78
508,66	1,14
508,86	6,79
509,06	-0,11
509,27	0,28
509,47	5,00
509,67	9,84
509,87	4,72
510,07	4,10
510,27	3,50
510,47	2,15
510,67	4,77
510,87	0,47
511,07	3,21
511,28	5,65
511,48	3,71
511,68	2,41
511,88	5,13
512,08	4,91
512,28	3,38
512,48	2,52
512,68	3,44
512,88	0,34
513,08	-1,13
513,28	6,11
513,48	6,27
513,68	3,52
513,89	3,02
514,09	8,36
514,29	4,58
514,49	2,84
514,69	7,30
514,89	2,18
515,09	5,71
515,29	3,22
515,49	6,75
515,69	8,05
515,89	8,39
516,09	5,59
516,29	5,19
516,49	2,26
516,69	9,48
516,89	9,27
517,09	9,24
517,29	8,56
517,50	9,40
517,70	8,87
517,90	11,36
518,10	9,44
518,30	5,64
518,50	6,82
518,70	7,57
518,90	12,08
519,10	4,78
519,30	7,52
519,50	7,30
519,70	7,58
519,90	7,55
520,10	4,62
520,30	3,03
520,50	3,03
520,70	3,85
520,90	8,57
521,10	5,26
521,30	5,95
521,50	2,92
521,70	2,57
521,90	3,85
522,10	1,35
522,30	1,26
522,50	1,22
522,70	2,21
522,90	3,50
523,10	4,24
523,30	6,92
523,50	2,59
523,70	6,25
523,90	3,73
524,10	1,02
524,30	-3,75
524,50	2,06
524,70	2,43
524,90	4,19
525,10	7,32
525,30	2,18
525,50	2,53
525,70	2,24
525,90	7,34
526,10	4,64
526,30	1,33
526,50	2,70
526,70	6,07
526,90	4,21
527,10	4,08
527,30	3,47
527,50	5,65
527,70	6,22
527,90	6,97
528,10	2,57
528,30	8,40
528,50	7,28
528,70	4,53
528,90	1,96
529,10	3,03
529,30	6,66
529,50	6,91
529,70	0,99
529,90	4,55
530,10	2,91
530,29	5,28
530,49	2,13
530,69	5,90
530,89	3,06
531,09	2,16
531,29	1,81
531,49	4,87
531,69	1,53
531,89	3,63
532,09	7,98
532,29	4,90
532,49	4,99
532,69	-0,24
532,89	1,37
533,09	3,66
533,29	8,16
533,49	7,29
533,68	5,74
533,88	7,34
534,08	0,36
534,28	2,32
534,48	6,60
534,68	3,59
534,88	5,24
535,08	6,17
535,28	9,46
535,48	3,16
535,68	3,76
535,88	-0,13
536,08	3,41
536,27	3,08
536,47	-0,38
536,67	1,44
536,87	6,35
537,07	3,65
537,27	3,98
537,47	1,35
537,67	2,66
537,87	2,22
538,07	4,10
538,27	6,13
538,46	9,00
538,66	7,00
538,86	3,37
539,06	5,68
539,26	0,30
539,46	1,24
539,66	6,85
539,86	3,33
540,06	3,03
540,25	6,63
540,45	4,70
540,65	5,93
540,85	4,90
541,05	5,47
541,25	3,44
541,45	-0,07
541,65	4,14
541,85	0,52
542,04	5,51
542,24	4,66
542,44	4,03
542,64	4,62
542,84	0,40
543,04	2,61
543,24	1,51
543,43	5,40
543,63	6,99
543,83	5,60
544,03	6,64
544,23	4,12
544,43	6,04
544,63	1,23
544,82	7,99
545,02	5,42
545,22	3,92
545,42	0,79
545,62	5,97
545,82	5,70
546,02	6,55
546,21	5,57
546,41	6,00
546,61	7,73
546,81	7,68
547,01	6,07
547,21	2,76
547,40	5,62
547,60	6,67
547,80	2,68
548,00	6,52
548,20	1,08
548,40	3,72
548,59	0,41
548,79	9,17
548,99	6,68
549,19	9,96
549,39	9,90
549,59	3,36
549,78	6,65
549,98	6,78
550,18	8,62
550,38	11,09
550,58	4,28
550,77	6,07
550,97	8,51
551,17	2,32
551,37	2,88
551,57	4,99
551,76	2,66
551,96	6,41
552,16	4,26
552,36	6,66
552,56	5,21
552,75	6,39
552,95	2,47
553,15	9,62
553,35	3,36
553,55	8,18
553,74	5,32
553,94	9,69
554,14	5,39
554,34	7,69
554,54	6,14
554,73	6,28
554,93	11,45
555,13	5,62
555,33	4,61
555,53	9,02
555,72	6,25
555,92	2,02
556,12	6,64
556,32	6,24
556,51	4,99
556,71	3,41
556,91	7,67
557,11	8,09
557,30	5,61
557,50	5,72
557,70	3,72
557,90	8,31
558,10	9,06
558,29	7,91
558,49	10,84
558,69	10,20
558,89	7,75
559,08	10,54
559,28	6,00
559,48	4,46
559,68	8,62
559,87	9,10
560,07	9,49
560,27	8,47
560,47	12,27
560,66	9,32
560,86	12,29
561,06	9,66
561,25	12,12
561,45	6,51
561,65	12,89
561,85	11,03
562,04	8,58
562,24	6,84
562,44	9,18
562,64	11,40
562,83	10,38
563,03	6,10
563,23	9,55
563,42	9,71
563,62	9,94
563,82	11,67
564,02	11,98
564,21	12,82
564,41	8,97
564,61	12,34
564,80	14,28
565,00	15,44
565,20	10,05
565,40	9,35
565,59	14,21
565,79	10,94
565,99	13,43
566,18	13,25
566,38	11,69
566,58	11,80
566,78	11,15
566,97	15,86
567,17	10,87
567,37	14,12
567,56	17,78
567,76	12,15
567,96	15,02
568,15	17,36
568,35	20,61
568,55	21,88
568,74	24,11
568,94	22,51
569,14	25,08
569,33	38,00
569,53	53,92
569,73	77,51
569,92	111,20
570,12	151,94
570,32	185,44
570,52	205,06
570,71	223,75
570,91	237,46
571,11	225,53
571,30	192,93
571,50	170,39
571,70	145,96
571,89	116,18
572,09	104,00
572,28	91,73
572,48	86,29
572,68	79,94
572,87	74,62
573,07	70,60
573,27	73,20
573,46	61,40
573,66	63,06
573,86	58,45
574,05	54,17
574,25	47,57
574,45	50,07
574,64	43,00
574,84	35,68
575,04	40,33
575,23	29,25
575,43	29,40
575,62	31,67
575,82	27,62
576,02	25,19
576,21	27,48
576,41	37,41
576,61	36,51
576,80	30,86
577,00	27,09
577,19	35,30
577,39	35,75
577,59	30,28
577,78	28,68
577,98	35,77
578,18	35,10
578,37	37,36
578,57	33,71
578,76	31,30
578,96	34,87
579,16	37,10
579,35	34,90
579,55	33,27
579,74	33,96
579,94	36,03
580,14	37,33
580,33	41,39
580,53	41,11
580,72	39,71
580,92	35,38
581,12	42,70
581,31	36,37
581,51	43,46
581,70	42,22
581,90	44,71
582,10	39,66
582,29	41,36
582,49	46,95
582,68	48,23
582,88	44,94
583,07	50,85
583,27	51,75
583,47	52,97
583,66	52,81
583,86	54,04
584,05	49,82
584,25	61,22
584,44	60,55
584,64	63,62
584,84	60,18
585,03	66,44
585,23	67,46
585,42	69,28
585,62	71,25
585,81	74,84
586,01	75,70
586,20	84,73
586,40	86,71
586,60	98,28
586,79	96,61
586,99	107,10
587,18	120,52
587,38	129,97
587,57	136,08
587,77	146,27
587,96	153,28
588,16	171,07
588,35	178,69
588,55	191,87
588,75	209,29
588,94	228,54
589,14	265,64
589,33	306,68
589,53	465,06
589,72	1164,42
589,92	3519,11
590,11	7998,87
590,31	12499,89
590,50	18109,94
590,70	25311,62
590,89	32778,77
591,09	37769,19
591,28	39222,02
591,48	40201,52
591,67	38731,51
591,87	34421,74
592,06	29329,98
592,26	24531,63
592,45	20394,84
592,65	16849,21
592,84	14316,86
593,04	12638,62
593,23	11454,15
593,43	10546,91
593,62	9632,64
593,82	8805,98
594,01	7987,01
594,21	7231,18
594,40	6380,34
594,60	5511,23
594,79	4637,41
594,99	3776,62
595,18	3062,48
595,38	2329,35
595,57	1762,49
595,77	1282,03
595,96	939,53
596,16	694,89
596,35	532,33
596,55	422,68
596,74	341,78
596,94	289,97
597,13	253,21
597,33	223,77
597,52	194,26
597,72	181,05
597,91	164,02
598,11	155,16
598,30	144,66
598,50	135,00
598,69	130,34
598,88	117,17
599,08	110,91
599,27	104,53
599,47	103,82
599,66	93,36
599,86	87,64
600,05	84,04
600,25	86,64
600,44	77,80
600,64	76,43
600,83	83,67
601,02	72,32
601,22	69,09
601,41	71,73
601,61	72,80
601,80	68,38
602,00	64,70
602,19	62,86
602,38	56,48
602,58	60,26
602,77	59,21
602,97	51,64
603,16	54,32
603,36	58,02
603,55	53,88
603,74	53,98
603,94	55,65
604,13	57,40
604,33	49,55
604,52	53,47
604,72	51,31
604,91	51,49
605,10	55,06
605,30	52,75
605,49	47,43
605,69	47,00
605,88	47,20
606,07	46,67
606,27	44,92
606,46	45,54
606,66	46,38
606,85	43,95
607,04	44,21
607,24	45,58
607,43	44,37
607,63	41,03
607,82	42,28
608,01	40,72
608,21	44,12
608,40	42,13
608,60	41,80
608,79	41,21
608,98	32,08
609,18	40,03
609,37	35,18
609,57	36,64
609,76	38,12
609,95	36,54
610,15	37,14
610,34	36,92
610,53	37,65
610,73	37,52
610,92	37,73
611,11	32,63
611,31	32,16
611,50	31,62
611,70	33,39
611,89	33,22
612,08	29,55
612,28	31,77
612,47	36,66
612,66	36,79
612,86	28,81
613,05	33,55
613,24	27,33
613,44	29,08
613,63	29,55
613,82	34,56
614,02	32,28
614,21	28,19
614,41	26,33
614,60	28,09
614,79	26,44
614,99	26,08
615,18	20,29
615,37	27,93
615,57	27,61
615,76	29,39
615,95	24,05
616,15	26,86
616,34	28,33
616,53	33,20
616,73	32,91
616,92	38,85
617,11	44,47
617,30	57,96
617,50	60,60
617,69	64,39
617,88	62,20
618,08	62,98
618,27	65,76
618,46	56,53
618,66	52,56
618,85	43,76
619,04	38,44
619,24	36,64
619,43	36,61
619,62	38,14
619,82	34,13
620,01	25,02
620,20	29,40
620,39	23,47
620,59	27,10
620,78	23,70
620,97	20,64
621,17	17,63
621,36	22,46
621,55	19,26
621,74	20,85
621,94	16,42
622,13	18,94
622,32	19,20
622,52	15,54
622,71	13,83
622,90	19,35
623,09	19,49
623,29	16,18
623,48	15,60
623,67	13,56
623,86	13,02
624,06	11,32
624,25	11,59
624,44	12,45
624,64	11,81
624,83	14,21
625,02	12,47
625,21	11,05
625,41	13,52
625,60	12,21
625,79	11,89
625,98	15,60
626,18	12,51
626,37	14,25
626,56	15,30
626,75	13,94
626,95	13,87
627,14	8,30
627,33	9,33
627,52	14,31
627,72	15,13
627,91	14,25
628,10	14,75
628,29	14,48
628,49	13,54
628,68	16,60
628,87	8,19
629,06	12,34
629,25	11,32
629,45	14,38
629,64	11,50
629,83	11,58
630,02	10,68
630,22	10,20
630,41	13,56
630,60	11,10
630,79	7,90
630,98	8,57
631,18	6,73
631,37	13,03
631,56	10,06
631,75	11,61
631,94	11,83
632,14	11,34
632,33	6,86
632,52	12,30
632,71	12,32
632,90	6,78
633,10	12,16
633,29	13,33
633,48	9,67
633,67	9,42
633,86	8,79
634,06	3,05
634,25	11,40
634,44	11,52
634,63	7,45
634,82	6,23
635,02	9,13
635,21	4,67
635,40	6,42
635,59	11,09
635,78	10,14
635,97	15,08
636,17	7,84
636,36	9,59
636,55	8,21
636,74	7,69
636,93	8,42
637,12	11,76
637,32	4,41
637,51	11,22
637,70	10,32
637,89	7,32
638,08	7,82
638,27	12,49
638,47	9,31
638,66	2,80
638,85	5,22
639,04	5,33
639,23	10,94
639,42	7,67
639,62	5,50
639,81	13,41
640,00	5,34
640,19	8,29
640,38	9,45
640,57	9,00
640,76	9,53
640,95	4,84
641,15	8,18
641,34	2,05
641,53	9,54
641,72	5,28
641,91	7,95
642,10	6,79
642,29	9,67
642,49	9,34
642,68	7,32
642,87	3,54
643,06	9,51
643,25	8,12
643,44	2,56
643,63	8,95
643,82	3,36
644,01	6,63
644,21	8,10
644,40	8,76
644,59	10,36
644,78	2,69
644,97	8,95
645,16	0,46
645,35	9,10
645,54	6,67
645,73	8,20
645,92	9,56
646,12	3,41
646,31	10,00
646,50	9,24
646,69	9,53
646,88	9,17
647,07	1,47
647,26	9,63
647,45	5,82
647,64	5,26
647,83	8,04
648,02	7,32
648,22	3,48
648,41	8,64
648,60	9,19
648,79	11,17
648,98	8,39
649,17	9,42
649,36	7,58
649,55	6,36
649,74	7,99
649,93	6,17
650,12	3,60
650,31	3,40
650,50	6,59
650,69	14,16
650,88	4,13
651,08	6,82
651,27	7,22
651,46	3,28
651,65	8,85
651,84	7,06
652,03	2,17
652,22	9,40
652,41	7,36
652,60	8,05
652,79	6,89
652,98	8,74
653,17	6,41
653,36	6,35
653,55	5,21
653,74	8,67
653,93	7,32
654,12	12,22
654,31	9,78
654,50	10,62
654,69	8,07
654,88	7,36
655,07	4,86
655,26	9,15
655,45	9,12
655,64	4,92
655,83	5,97
656,02	6,00
656,21	3,23
656,40	3,35
656,59	1,96
656,78	7,27
656,97	6,36
657,17	3,57
657,36	9,07
657,55	8,81
657,74	5,94
657,93	5,54
658,12	5,59
658,31	6,61
658,50	5,52
658,69	5,64
658,87	4,40
659,06	0,64
659,25	3,88
659,44	6,31
659,63	9,45
659,82	5,88
660,01	5,79
660,20	5,79
660,39	1,97
660,58	6,31
660,77	5,29
660,96	5,99
661,15	13,92
661,34	12,96
661,53	3,34
661,72	7,87
661,91	4,84
662,10	9,41
662,29	2,82
662,48	2,69
662,67	5,79
662,86	3,28
663,05	5,91
663,24	0,80
663,43	4,85
663,62	4,21
663,81	6,10
664,00	8,19
664,19	5,56
664,38	2,89
664,57	-0,02
664,76	7,66
664,94	6,00
665,13	6,46
665,32	3,11
665,51	4,11
665,70	1,78
665,89	5,87
666,08	0,80
666,27	1,12
666,46	1,12
666,65	6,58
666,84	1,53
667,03	4,45
667,22	8,67
667,41	4,00
667,60	8,23
667,78	4,38
667,97	5,49
668,16	4,71
668,35	3,87
668,54	6,01
668,73	2,99
668,92	2,58
669,11	7,65
669,30	9,84
669,49	5,88
669,68	0,62
669,86	7,30
670,05	4,62
670,24	5,89
670,43	2,28
670,62	3,59
670,81	3,80
671,00	5,28
671,19	3,44
671,38	4,60
671,57	5,83
671,75	4,57
671,94	5,03
672,13	5,18
672,32	4,83
672,51	4,54
672,70	3,69
672,89	2,06
673,08	5,17
673,26	5,49
673,45	0,52
673,64	7,99
673,83	2,58
674,02	0,68
674,21	4,69
674,40	4,68
674,59	4,65
674,77	6,43
674,96	1,04
675,15	9,54
675,34	5,19
675,53	3,12
675,72	2,79
675,91	6,52
676,09	4,72
676,28	6,71
676,47	-1,66
676,66	3,07
676,85	4,68
677,04	0,60
677,22	-1,05
677,41	0,58
677,60	0,98
677,79	2,50
677,98	6,69
678,17	7,72
678,36	2,24
678,54	8,23
678,73	3,54
678,92	4,13
679,11	6,02
679,30	1,84
679,48	2,92
679,67	5,87
679,86	2,92
680,05	5,91
680,24	5,11
680,43	5,06
680,61	4,78
680,80	2,07
680,99	5,17
681,18	5,18
681,37	8,40
681,55	4,36
681,74	4,94
681,93	3,28
682,12	7,38
682,31	8,63
682,49	3,34
682,68	4,72
682,87	1,17
683,06	2,94
683,25	5,30
683,43	1,21
683,62	6,66
683,81	2,45
684,00	4,71
684,19	4,08
684,37	4,89
684,56	3,18
684,75	-1,35
684,94	-0,07
685,12	5,96
685,31	2,29
685,50	-1,92
685,69	1,71
685,88	6,11
686,06	-0,53
686,25	9,35
686,44	4,21
686,63	-2,21
686,81	-0,47
687,00	2,72
687,19	2,66
687,38	3,30
687,56	2,47
687,75	2,10
687,94	1,65
688,13	4,15
688,31	3,15
688,50	6,42
688,69	1,08
688,88	3,53
689,06	0,60
689,25	4,24
689,44	4,03
689,63	5,35
689,81	5,30
690,00	6,64
690,19	1,84
690,38	1,82
690,56	7,59
690,75	4,56
690,94	3,39
691,13	6,43
691,31	2,73
691,50	4,92
691,69	3,51
691,87	2,53
692,06	4,02
692,25	6,48
692,44	1,25
692,62	8,39
692,81	1,41
693,00	2,96
693,18	0,88
693,37	6,14
693,56	6,16
693,75	-3,00
693,93	-5,16
694,12	1,97
694,31	2,06
694,49	1,95
694,68	3,80
694,87	1,93
695,05	2,64
695,24	0,95
695,43	-0,25
695,62	5,94
695,80	4,88
695,99	4,94
696,18	2,43
696,36	1,98
696,55	5,87
696,74	6,28
696,92	12,44
697,11	14,17
697,30	16,64
697,48	20,50
697,67	34,17
697,86	41,28
698,04	35,66
698,23	40,04
698,42	41,70
698,60	43,71
698,79	39,27
698,98	32,86
699,16	29,98
699,35	27,21
699,54	20,99
699,72	15,57
699,91	13,46
700,10	13,62
700,28	14,83
700,47	12,27
700,66	10,82
700,84	9,23
701,03	11,47
701,21	8,78
701,40	12,66
701,59	4,89
701,77	6,46
701,96	5,85
702,15	2,07
702,33	4,82
702,52	4,63
702,71	2,21
702,89	5,20
703,08	2,38
703,26	0,72
703,45	3,52
703,64	2,27
703,82	2,82
704,01	3,14
704,20	2,73
704,38	6,72
704,57	4,63
704,75	5,32
704,94	1,27
705,13	9,11
705,31	5,04
705,50	8,28
705,68	2,92
705,87	5,75
706,06	2,94
706,24	3,09
706,43	4,25
706,61	4,08
706,80	1,54
706,99	9,85
707,17	7,21
707,36	15,03
707,54	16,75
707,73	20,13
707,92	24,90
708,10	26,31
708,29	28,25
708,47	26,77
708,66	31,10
708,84	24,08
709,03	22,42
709,22	21,72
709,40	19,22
709,59	16,82
709,77	13,93
709,96	11,62
710,14	8,86
710,33	11,97
710,52	8,46
710,70	10,61
710,89	7,44
711,07	9,35
711,26	8,01
711,44	6,33
711,63	2,00
711,81	2,76
712,00	4,29
712,19	0,16
712,37	-1,14
712,56	7,94
712,74	8,32
712,93	3,84
713,11	4,55
713,30	6,51
713,48	2,56
713,67	3,12
713,85	4,64
714,04	4,19
714,22	1,24
714,41	1,95
714,59	5,46
714,78	3,96
714,97	4,08
715,15	5,14
715,34	0,45
715,52	9,65
715,71	6,76
715,89	4,07
716,08	5,56
716,26	3,13
716,45	7,55
716,63	1,72
716,82	3,94
717,00	5,41
717,19	11,50
717,37	3,70
717,56	7,09
717,74	7,60
717,93	4,20
718,11	8,20
718,30	6,34
718,48	1,61
718,67	-0,41
718,85	2,45
719,04	6,18
719,22	3,99
719,41	0,74
719,59	2,25
719,78	0,08
719,96	4,47
720,15	2,32
720,33	6,14
720,52	5,00
720,70	4,06
720,88	5,44
721,07	4,50
721,25	5,34
721,44	4,74
721,62	4,43
721,81	1,02
721,99	1,94
722,18	2,98
722,36	-1,96
722,55	-4,59
722,73	0,03
722,92	5,99
723,10	3,52
723,28	-0,36
723,47	4,41
723,65	6,30
723,84	1,42
724,02	1,24
724,21	0,23
724,39	-3,52
724,58	3,47
724,76	2,26
724,94	6,17
725,13	0,99
725,31	0,47
725,50	8,45
725,68	5,89
725,87	1,85
726,05	1,20
726,23	3,07
726,42	2,92
726,60	-1,21
726,79	3,97
726,97	3,32
727,16	4,72
727,34	3,85
727,52	8,37
727,71	5,71
727,89	7,48
728,08	4,11
728,26	6,63
728,44	9,27
728,63	12,62
728,81	12,47
729,00	11,82
729,18	9,78
729,36	8,11
729,55	12,89
729,73	5,90
729,92	11,17
730,10	4,83
730,28	4,97
730,47	5,46
730,65	6,84
730,84	3,40
731,02	5,85
731,20	9,08
731,39	2,30
731,57	8,13
731,75	0,09
731,94	3,85
732,12	4,89
732,31	0,95
732,49	1,83
732,67	0,61
732,86	3,19
733,04	1,20
733,22	0,24
733,41	1,70
733,59	2,27
733,78	3,73
733,96	0,01
734,14	3,25
734,33	4,07
734,51	2,44
734,69	-1,62
734,88	4,78
735,06	5,58
735,24	3,37
735,43	2,61
735,61	3,41
735,79	5,14
735,98	4,04
736,16	5,23
736,34	0,20
736,53	3,19
736,71	-0,21
736,89	1,39
737,08	-0,02
737,26	4,93
737,44	5,83
737,63	6,32
737,81	5,27
737,99	0,54
738,18	4,73
738,36	11,84
738,54	12,28
738,73	15,04
738,91	22,54
739,09	25,51
739,28	34,89
739,46	41,20
739,64	43,35
739,82	43,27
740,01	45,16
740,19	46,94
740,37	38,03
740,56	42,10
740,74	41,54
740,92	37,21
741,11	34,13
741,29	30,35
741,47	19,33
741,65	15,84
741,84	15,54
742,02	10,49
742,20	10,95
742,39	6,97
742,57	4,82
742,75	7,67
742,93	6,67
743,12	3,61
743,30	0,82
743,48	2,34
743,67	4,12
743,85	2,78
744,03	5,74
744,21	0,44
744,40	2,89
744,58	0,27
744,76	1,65
744,94	7,02
745,13	5,88
745,31	2,95
745,49	1,94
745,67	0,12
745,86	1,41
746,04	3,45
746,22	5,71
746,40	4,80
746,59	3,80
746,77	2,88
746,95	1,80
747,13	2,71
747,32	2,80
747,50	-0,15
747,68	5,38
747,86	6,69
748,05	5,30
748,23	8,77
748,41	12,01
748,59	1,72
748,77	2,09
748,96	1,76
749,14	2,84
749,32	-4,25
749,50	-0,12
749,69	4,69
749,87	5,81
750,05	1,26
750,23	2,41
750,41	8,88
750,60	8,75
750,78	15,25
750,96	19,15
751,14	25,38
751,32	29,48
751,51	38,25
751,69	44,68
751,87	52,89
752,05	52,79
752,23	55,62
752,42	60,57
752,60	62,73
752,78	59,00
752,96	56,64
753,14	55,05
753,33	52,29
753,51	45,58
753,69	38,90
753,87	38,30
754,05	28,16
754,23	23,35
754,42	20,68
754,60	15,22
754,78	13,81
754,96	6,73
755,14	5,94
755,32	9,74
755,51	4,72
755,69	7,42
755,87	4,99
756,05	3,94
756,23	-1,16
756,41	-1,87
756,60	4,60
756,78	1,70
756,96	-0,07
757,14	3,41
757,32	3,63
757,50	5,06
757,68	0,78
757,87	5,28
758,05	5,92
758,23	1,39
758,41	3,18
758,59	1,10
758,77	1,88
758,95	-1,73
759,14	5,40
759,32	2,14
759,50	2,88
759,68	3,87
759,86	3,13
760,04	2,55
760,22	0,79
760,40	2,03
760,59	-0,29
760,77	5,28
760,95	5,01
761,13	7,55
761,31	8,41
761,49	5,57
761,67	3,17
761,85	4,56
762,03	5,62
762,22	0,11
762,40	1,73
762,58	3,34
762,76	1,68
762,94	4,13
763,12	8,36
763,30	7,06
763,48	24,00
763,66	41,53
763,84	68,73
764,02	95,74
764,21	119,17
764,39	146,79
764,57	162,41
764,75	186,93
764,93	188,61
765,11	177,59
765,29	164,25
765,47	156,85
765,65	142,94
765,83	123,13
766,01	110,40
766,19	95,59
766,37	71,41
766,56	63,05
766,74	44,67
766,92	38,19
767,10	30,82
767,28	26,03
767,46	24,36
767,64	27,70
767,82	25,31
768,00	27,03
768,18	19,65
768,36	18,16
768,54	18,82
768,72	19,20
768,90	16,27
769,08	11,71
769,26	16,23
769,44	9,34
769,62	3,83
769,80	5,35
769,98	9,67
770,16	5,95
770,34	10,57
770,52	11,17
770,71	13,09
770,89	14,44
771,07	10,23
771,25	10,26
771,43	13,62
771,61	10,40
771,79	18,15
771,97	8,73
772,15	14,36
772,33	16,78
772,51	17,96
772,69	25,69
772,87	40,84
773,05	49,60
773,23	56,44
773,41	63,53
773,59	71,84
773,77	66,95
773,95	63,42
774,13	57,07
774,31	55,54
774,49	43,46
774,67	47,55
774,85	33,91
775,03	32,77
775,21	22,57
775,39	18,52
775,57	13,37
775,75	8,95
775,93	9,44
776,10	9,88
776,28	4,88
776,46	5,96
776,64	5,63
776,82	7,43
777,00	7,56
777,18	4,83
777,36	2,08
777,54	4,39
777,72	3,87
777,90	1,71
778,08	4,01
778,26	-0,12
778,44	4,66
778,62	7,78
778,80	3,23
778,98	3,61
779,16	8,35
779,34	2,07
779,52	-3,13
779,70	-0,42
779,88	2,82
780,05	9,53
780,23	1,66
780,41	5,93
780,59	3,39
780,77	-0,16
780,95	3,10
781,13	3,54
781,31	3,21
781,49	6,39
781,67	7,97
781,85	2,71
782,03	2,23
782,21	3,31
782,39	6,25
782,56	2,27
782,74	4,69
782,92	1,01
783,10	-0,64
783,28	-5,23
783,46	1,85
783,64	3,73
783,82	2,78
784,00	3,41
784,18	5,24
784,35	7,66
784,53	1,31
784,71	1,03
784,89	3,49
785,07	4,08
785,25	5,22
785,43	2,90
785,61	1,26
785,79	-4,15
785,96	3,78
786,14	0,14
786,32	3,96
786,50	0,73
786,68	5,23
786,86	0,24
787,04	3,55
787,22	6,51
787,39	2,38
787,57	-0,77
787,75	2,87
787,93	5,00
788,11	1,42
788,29	0,52
788,47	5,29
788,65	1,67
788,82	6,00
789,00	1,70
789,18	-1,11
789,36	1,37
789,54	0,78
789,72	0,67
789,89	2,32
790,07	3,30
790,25	4,72
790,43	-0,20
790,61	7,68
790,79	9,27
790,96	-1,77
791,14	5,19
791,32	1,78
791,50	1,33
791,68	5,65
791,86	-1,46
792,03	-0,56
792,21	6,90
792,39	3,02
792,57	2,44
792,75	2,43
792,93	3,28
793,10	6,37
793,28	0,83
793,46	2,30
793,64	2,75
793,82	9,03
793,99	4,20
794,17	-0,47
794,35	3,83
794,53	5,77
794,71	1,84
794,88	15,70
795,06	15,74
795,24	22,80
795,42	28,08
795,60	33,32
795,77	33,31
795,95	34,73
796,13	36,82
796,31	33,27
796,49	29,32
796,66	26,32
796,84	24,24
797,02	18,87
797,20	18,50
797,37	19,77
797,55	17,12
797,73	16,95
797,91	10,92
798,08	9,75
798,26	8,13
798,44	6,45
798,62	6,02
798,80	3,80
798,97	3,88
799,15	2,62
799,33	3,70
799,51	3,07
799,68	5,59
799,86	2,68
800,04	5,67
800,22	2,53
800,39	13,96
800,57	10,01
800,75	12,27
800,93	13,89
801,10	18,93
801,28	21,22
801,46	29,17
801,63	34,06
801,81	40,32
801,99	42,76
802,17	42,65
802,34	46,38
802,52	46,07
802,70	41,79
802,88	37,13
803,05	34,20
803,23	31,82
803,41	32,30
803,58	26,00
803,76	23,98
803,94	24,16
804,12	20,30
804,29	15,15
804,47	16,01
804,65	15,14
804,82	2,62
805,00	10,22
805,18	4,99
805,35	3,93
805,53	5,41
805,71	5,21
805,89	4,93
806,06	3,33
806,24	5,16
806,42	4,21
806,59	5,00
806,77	1,61
806,95	2,47
807,12	3,87
807,30	2,32
807,48	2,07
807,65	6,23
807,83	2,16
808,01	2,68
808,18	2,22
808,36	5,67
808,54	2,41
808,71	2,67
808,89	4,23
809,07	6,92
809,24	4,03
809,42	3,42
809,60	2,37
809,77	2,70
809,95	7,99
810,13	9,15
810,30	12,16
810,48	20,65
810,66	23,61
810,83	30,21
811,01	40,13
811,18	49,95
811,36	57,95
811,54	75,96
811,71	97,18
811,89	109,92
812,07	122,97
812,24	134,51
812,42	140,43
812,59	142,15
812,77	138,12
812,95	127,82
813,12	113,85
813,30	102,40
813,48	93,92
813,65	87,27
813,83	77,31
814,00	72,30
814,18	60,93
814,36	64,28
814,53	51,35
814,71	43,84
814,88	32,83
815,06	27,28
815,24	23,06
815,41	17,85
815,59	12,48
815,76	16,54
815,94	10,13
816,12	7,36
816,29	7,71
816,47	7,89
816,64	6,88
816,82	5,51
817,00	4,67
817,17	4,31
817,35	11,42
817,52	5,10
817,70	8,79
817,87	18,16
818,05	42,72
818,23	69,13
818,40	109,07
818,58	139,57
818,75	177,68
818,93	219,35
819,10	256,18
819,28	306,85
819,46	361,31
819,63	406,13
819,81	437,91
819,98	467,98
820,16	492,73
820,33	502,04
820,51	501,93
820,68	485,98
820,86	444,14
821,03	407,46
821,21	374,45
821,39	339,59
821,56	311,48
821,74	277,33
821,91	254,53
822,09	239,45
822,26	217,96
822,44	188,93
822,61	161,89
822,79	130,86
822,96	100,32
823,14	73,30
823,31	53,10
823,49	41,82
823,66	32,50
823,84	20,58
824,01	15,01
824,19	16,28
824,36	14,87
824,54	10,04
824,71	8,65
824,89	7,91
825,06	7,34
825,24	4,39
825,41	5,80
825,59	6,92
825,76	8,29
825,94	10,29
826,11	7,98
826,29	10,07
826,46	7,73
826,64	11,97
826,81	19,74
826,99	24,46
827,16	21,02
827,34	20,99
827,51	20,88
827,69	21,90
827,86	17,99
828,04	18,74
828,21	19,28
828,39	13,73
828,56	15,84
828,74	15,53
828,91	12,83
829,09	14,11
829,26	12,92
829,43	11,39
829,61	7,99
829,78	9,77
829,96	10,15
830,13	5,75
830,31	8,49
830,48	5,60
830,66	1,65
830,83	5,84
831,01	4,27
831,18	6,67
831,35	4,95
831,53	1,55
831,70	4,78
831,88	5,46
832,05	4,54
832,23	6,82
832,40	-2,38
832,57	0,06
832,75	0,32
832,92	7,18
833,10	-0,90
833,27	6,89
833,45	0,37
833,62	6,09
833,79	8,31
833,97	5,78
834,14	2,52
834,32	2,23
834,49	2,25
834,66	8,12
834,84	4,41
835,01	2,82
835,19	0,84
835,36	-0,27
835,53	6,61
835,71	3,57
835,88	6,87
836,06	3,08
836,23	7,92
836,40	5,67
836,58	1,85
836,75	0,90
836,93	-0,99
837,10	2,33
837,27	3,78
837,45	7,09
837,62	2,29
837,79	7,00
837,97	-0,14
838,14	1,38
838,32	3,41
838,49	7,09
838,66	6,63
838,84	-0,08
839,01	-0,48
839,18	7,84
839,36	2,90
839,53	3,68
839,70	0,17
839,88	1,62
840,05	1,33
840,23	5,00
840,40	8,39
840,57	6,26
840,75	13,98
840,92	11,27
841,09	17,62
841,27	19,93
841,44	26,22
841,61	24,38
841,79	23,16
841,96	35,22
842,13	24,23
842,31	33,96
842,48	33,75
842,65	39,99
842,83	33,33
843,00	46,76
843,17	46,35
843,35	46,73
843,52	45,37
843,69	38,73
843,86	44,65
844,04	40,61
844,21	36,23
844,38	33,78
844,56	28,00
844,73	25,37
844,90	25,01
845,08	23,58
845,25	23,51
845,42	22,54
845,60	22,98
845,77	19,64
845,94	9,17
846,11	15,13
846,29	5,85
846,46	7,97
846,63	3,49
846,81	3,49
846,98	6,14
847,15	1,03
847,32	0,59
847,50	4,36
847,67	5,43
847,84	5,53
848,01	3,90
848,19	6,25
848,36	3,14
848,53	-1,22
848,71	1,23
848,88	2,12
849,05	-1,84
849,22	1,29
849,40	1,78
849,57	0,55
849,74	2,87
849,91	0,74
850,09	6,57
850,26	-0,71
850,43	6,70
850,60	8,68
850,78	1,66
850,95	-0,71
851,12	1,92
851,29	0,72
851,47	3,86
851,64	5,32
851,81	3,33
851,98	6,72
852,15	8,13
852,33	6,77
852,50	10,28
852,67	7,25
852,84	9,70
853,02	9,78
853,19	14,36
853,36	6,66
853,53	9,59
853,70	8,36
853,88	7,72
854,05	10,24
854,22	6,38
854,39	11,45
854,56	5,21
854,74	7,82
854,91	7,51
855,08	9,16
855,25	11,31
855,42	6,82
855,60	3,75
855,77	2,86
855,94	6,79
856,11	6,40
856,28	2,68
856,46	4,41
856,63	0,09
856,80	5,01
856,97	5,65
857,14	3,51
857,31	-0,19
857,49	6,49
857,66	5,24
857,83	-1,04
858,00	-1,17
858,17	2,94
858,34	2,00
858,52	2,29
858,69	3,67
858,86	1,53
859,03	5,61
859,20	5,93
859,37	5,83
859,55	2,42
859,72	-1,56
859,89	4,59
860,06	2,98
860,23	2,75
860,40	0,51
860,57	2,45
860,75	7,05
860,92	3,08
861,09	1,94
861,26	6,33
861,43	1,82
861,60	7,84
861,77	3,43
861,95	-0,36
862,12	-0,05
862,29	-1,19
862,46	-2,06
862,63	0,55
862,80	-0,24
862,97	3,47
863,14	4,87
863,31	5,06
863,49	3,97
863,66	3,13
863,83	4,75
864,00	2,57
864,17	2,77
864,34	6,15
864,51	3,36
864,68	1,53
864,85	1,66
865,02	0,33
865,20	5,71
865,37	4,59
865,54	7,77
865,71	9,90
865,88	4,16
866,05	-0,30
866,22	1,54
866,39	-0,51
866,56	8,35
866,73	6,78
866,90	1,62
867,07	5,79
867,25	2,26
867,42	-2,54
867,59	0,91
867,76	2,76
867,93	3,17
868,10	3,88
868,27	2,83
868,44	2,40
868,61	3,23
868,78	1,78
868,95	4,57
869,12	6,12
869,29	4,24
869,46	1,67
869,63	3,43
869,80	5,02
869,97	1,43
870,14	3,38
870,32	3,20
870,49	5,96
870,66	3,71
870,83	5,40
871,00	4,26
871,17	2,36
871,34	0,71
871,51	-1,29
871,68	3,51
871,85	3,61
872,02	-1,86
872,19	3,43
872,36	4,30
872,53	3,16
872,70	1,71
872,87	0,81
873,04	4,47
873,21	4,40
873,38	0,59
873,55	3,96
873,72	7,59
873,89	2,33
874,06	-1,21
874,23	0,45
874,40	8,36
874,57	2,51
874,74	0,71
874,91	3,27
875,08	6,23
875,25	1,67
875,42	1,33
875,59	1,14
875,76	1,15
875,93	1,79
876,10	-0,45
876,27	1,75
876,44	0,70
876,61	1,40
876,78	-1,37
876,95	2,24
877,12	-1,92
877,29	0,55
877,46	1,89
877,62	1,87
877,79	6,02
877,96	3,54
878,13	3,68
878,30	1,98
878,47	8,23
878,64	-3,08
878,81	-0,16
878,98	4,68
879,15	2,04
879,32	1,23
879,49	2,33
879,66	3,78
879,83	5,32
880,00	1,29
880,17	-0,19
880,34	1,46
880,51	0,38
880,67	-1,01
880,84	1,97
881,01	5,17
881,18	0,82
881,35	1,25
881,52	2,93
881,69	1,11
881,86	4,02
882,03	0,28
882,20	-0,50
882,37	1,62
882,54	4,32
882,70	-2,52
882,87	-1,30
883,04	5,97
883,21	0,83
883,38	3,85
883,55	0,03
883,72	-0,14
883,89	2,04
884,06	-0,02
884,23	1,71
884,39	7,87
884,56	5,69
884,73	2,80
884,90	-2,70
885,07	1,46
885,24	0,68
885,41	2,26
885,58	3,01
885,74	5,95
885,91	-2,23
886,08	3,17
886,25	5,33
886,42	7,77
886,59	1,55
886,76	2,70
886,93	2,63
887,09	1,09
887,26	4,55
887,43	3,82
887,60	3,14
887,77	1,24
887,94	-1,37
888,10	0,16
888,27	4,56
888,44	3,43
888,61	5,65
888,78	-5,25
888,95	0,93
889,12	5,78
889,28	-0,26
889,45	1,98
889,62	0,39
889,79	11,84
889,96	0,37
890,13	5,10
890,29	6,74
890,46	1,42
890,63	8,85
890,80	1,00
890,97	0,72
891,13	3,19
891,30	4,45
891,47	7,30
891,64	6,24
891,81	3,50
891,98	3,37
892,14	2,59
892,31	2,68
892,48	-2,29
892,65	3,38
892,82	1,08
892,98	1,98
893,15	9,58
893,32	4,13
>>>>>End Processed Spectral Data<<<<<
