SpectraSuite Datei
++++++++++++++++++++++++++++++++++++
Datum: Wed Oct 31 16:08:36 CET 2018
Benutzer: Admin
Dark-Spektrum vorhanden: Ja
Referenz-Spektrum vorhanden: Nein
Zahl der probierten Teilspektren: 1
Spektrometer: USB4F05832
Integrationszeit (usec): 5000 (USB4F05832)
Spektren Durchschnitt berechnet: 800 (USB4F05832)
Boxcar Glttung: 0 (USB4F05832)
Dunkelstromkorrektur: Nein (USB4F05832)
Puls/Lampe aktiviert: Nein (USB4F05832)
Correct for Detector Non-linearity: Nein (USB4F05832)
Streulichtkorrektur: Nein (USB4F05832)
Anzahl Pixel in verarbeitetem Spektrum: 3648
>>>>>Begin Processed Spectral Data<<<<<
177,54	6,33
177,75	6,33
177,97	6,33
178,19	-3,12
178,41	-5,81
178,63	22,30
178,85	6,18
179,07	-8,37
179,29	-3,62
179,51	-11,20
179,73	-6,36
179,95	12,85
180,17	-6,34
180,39	0,49
180,61	10,09
180,83	12,59
181,05	-19,36
181,27	15,29
181,49	2,24
181,71	-7,17
181,92	-18,63
182,14	2,73
182,36	7,91
182,58	12,48
182,80	4,13
183,02	4,29
183,24	19,82
183,46	-3,97
183,68	-20,64
183,90	-13,10
184,12	5,14
184,34	-10,58
184,56	-10,04
184,78	-17,12
185,00	-15,20
185,21	3,51
185,43	13,53
185,65	-9,11
185,87	-25,50
186,09	-9,55
186,31	-7,41
186,53	0,16
186,75	-4,25
186,97	-5,96
187,19	-11,56
187,41	-4,41
187,63	13,26
187,84	-5,77
188,06	-18,92
188,28	-1,52
188,50	12,22
188,72	8,02
188,94	-6,41
189,16	2,82
189,38	-22,07
189,60	-4,18
189,82	12,83
190,03	-4,39
190,25	-14,55
190,47	-5,79
190,69	7,28
190,91	-12,02
191,13	10,56
191,35	-12,86
191,57	-17,52
191,79	-17,06
192,01	-20,06
192,22	-1,79
192,44	-5,32
192,66	17,12
192,88	7,13
193,10	-26,17
193,32	-12,33
193,54	-9,55
193,76	8,69
193,98	0,79
194,19	6,85
194,41	-7,78
194,63	-12,16
194,85	2,81
195,07	0,49
195,29	13,99
195,51	6,93
195,73	-19,75
195,94	26,06
196,16	0,77
196,38	14,96
196,60	6,58
196,82	3,21
197,04	-5,27
197,26	-11,71
197,48	10,52
197,69	2,97
197,91	10,97
198,13	-17,29
198,35	-8,68
198,57	-1,17
198,79	-2,97
199,01	-9,01
199,22	6,29
199,44	-18,48
199,66	2,79
199,88	5,75
200,10	10,22
200,32	13,37
200,54	-9,68
200,75	-16,89
200,97	-5,59
201,19	-6,59
201,41	-11,24
201,63	0,05
201,85	-7,38
202,06	-1,66
202,28	-13,64
202,50	17,40
202,72	9,46
202,94	-3,75
203,16	-3,11
203,38	-8,93
203,59	4,86
203,81	-15,82
204,03	9,29
204,25	-3,98
204,47	8,17
204,69	-1,96
204,90	-15,47
205,12	-15,86
205,34	-1,22
205,56	-20,78
205,78	17,79
206,00	3,68
206,21	-13,44
206,43	-3,22
206,65	16,65
206,87	-9,35
207,09	20,80
207,30	-3,60
207,52	2,84
207,74	-4,96
207,96	11,49
208,18	-12,31
208,40	2,90
208,61	13,44
208,83	-4,24
209,05	13,45
209,27	-14,46
209,49	8,36
209,70	0,32
209,92	6,64
210,14	-2,55
210,36	-5,47
210,58	-6,05
210,79	-5,33
211,01	-0,04
211,23	7,29
211,45	-5,46
211,67	9,77
211,88	2,83
212,10	-16,47
212,32	-6,26
212,54	-12,14
212,76	13,55
212,97	2,80
213,19	-14,79
213,41	1,66
213,63	25,31
213,85	15,89
214,06	0,57
214,28	-8,32
214,50	-22,38
214,72	11,07
214,94	-5,43
215,15	13,77
215,37	-6,25
215,59	8,82
215,81	3,89
216,02	-1,19
216,24	2,97
216,46	-4,03
216,68	-8,76
216,90	-13,54
217,11	-0,53
217,33	-4,54
217,55	-20,39
217,77	-6,63
217,98	-5,01
218,20	-18,76
218,42	1,04
218,64	4,49
218,85	-9,27
219,07	6,47
219,29	12,49
219,51	-31,83
219,73	17,05
219,94	-10,40
220,16	5,49
220,38	0,69
220,60	-4,27
220,81	-14,06
221,03	-3,41
221,25	-7,62
221,47	-9,12
221,68	-2,44
221,90	4,92
222,12	-0,15
222,34	15,21
222,55	1,38
222,77	4,78
222,99	0,49
223,21	7,05
223,42	12,25
223,64	8,57
223,86	-12,90
224,08	-1,54
224,29	5,65
224,51	1,80
224,73	10,26
224,94	-7,87
225,16	-0,84
225,38	12,02
225,60	5,26
225,81	5,68
226,03	15,88
226,25	8,68
226,47	7,63
226,68	-3,35
226,90	0,88
227,12	11,02
227,33	-13,73
227,55	7,07
227,77	2,52
227,99	6,82
228,20	-12,70
228,42	5,83
228,64	20,41
228,86	-2,15
229,07	-4,23
229,29	-4,93
229,51	-1,84
229,72	1,79
229,94	-13,08
230,16	0,27
230,38	1,60
230,59	0,78
230,81	-12,60
231,03	-10,62
231,24	10,38
231,46	-1,96
231,68	-5,95
231,89	-8,62
232,11	7,60
232,33	4,14
232,55	2,80
232,76	-2,63
232,98	7,86
233,20	-1,65
233,41	-10,84
233,63	6,22
233,85	-16,03
234,06	-18,73
234,28	-19,33
234,50	26,71
234,71	-2,80
234,93	6,82
235,15	7,51
235,37	2,69
235,58	0,81
235,80	-3,43
236,02	14,32
236,23	-16,96
236,45	5,15
236,67	-2,76
236,88	0,68
237,10	24,59
237,32	6,28
237,53	-11,24
237,75	-4,94
237,97	-6,96
238,18	-16,90
238,40	5,03
238,62	-14,69
238,83	-3,06
239,05	17,45
239,27	4,16
239,48	-0,74
239,70	13,46
239,92	3,02
240,13	1,10
240,35	-12,25
240,57	8,75
240,78	-14,52
241,00	-0,32
241,22	-12,44
241,43	-5,84
241,65	9,75
241,87	5,70
242,08	2,92
242,30	10,26
242,52	8,04
242,73	5,16
242,95	12,62
243,16	-14,09
243,38	1,60
243,60	5,07
243,81	4,19
244,03	-5,34
244,25	26,80
244,46	-5,18
244,68	-2,68
244,90	4,07
245,11	-12,35
245,33	21,14
245,55	4,10
245,76	-21,40
245,98	9,72
246,19	-1,35
246,41	3,69
246,63	-10,25
246,84	11,26
247,06	5,72
247,28	1,02
247,49	8,63
247,71	-11,25
247,92	3,50
248,14	-20,14
248,36	2,58
248,57	-15,22
248,79	6,11
249,01	10,48
249,22	3,44
249,44	5,47
249,65	-20,76
249,87	-12,74
250,09	9,14
250,30	-10,90
250,52	-6,54
250,73	1,09
250,95	-4,08
251,17	24,37
251,38	-6,74
251,60	4,86
251,81	4,82
252,03	14,52
252,25	-11,45
252,46	18,28
252,68	-13,54
252,89	18,13
253,11	-2,67
253,33	-12,58
253,54	-19,15
253,76	-12,07
253,97	-3,21
254,19	11,07
254,41	6,07
254,62	24,10
254,84	-15,82
255,05	-5,36
255,27	-0,24
255,49	10,00
255,70	-16,39
255,92	15,48
256,13	-23,40
256,35	-11,15
256,56	-2,41
256,78	7,96
257,00	-3,69
257,21	-6,28
257,43	-7,44
257,64	19,11
257,86	-11,62
258,08	2,97
258,29	-2,94
258,51	-10,29
258,72	-11,15
258,94	-6,28
259,15	3,64
259,37	18,34
259,59	3,42
259,80	-2,24
260,02	-7,47
260,23	-18,42
260,45	-1,24
260,66	-10,21
260,88	24,71
261,09	-3,03
261,31	24,52
261,53	4,75
261,74	11,28
261,96	3,95
262,17	18,28
262,39	2,36
262,60	2,44
262,82	-3,95
263,03	-18,65
263,25	6,20
263,46	32,63
263,68	-15,22
263,90	-12,59
264,11	-7,92
264,33	6,31
264,54	20,73
264,76	11,78
264,97	-15,23
265,19	3,40
265,40	-16,18
265,62	8,02
265,83	25,90
266,05	-12,32
266,26	12,18
266,48	1,10
266,70	20,35
266,91	-2,13
267,13	14,68
267,34	14,86
267,56	13,62
267,77	-19,02
267,99	7,43
268,20	-7,28
268,42	-12,99
268,63	-0,73
268,85	11,21
269,06	-4,28
269,28	5,24
269,49	5,21
269,71	-14,27
269,92	-4,17
270,14	-15,79
270,35	-3,22
270,57	8,90
270,78	-27,52
271,00	23,97
271,21	-26,17
271,43	1,98
271,64	-3,38
271,86	-0,36
272,07	-21,02
272,29	10,87
272,50	-2,74
272,72	4,76
272,93	10,87
273,15	23,69
273,36	2,20
273,58	-4,33
273,79	-10,18
274,01	1,67
274,22	9,60
274,44	-10,06
274,65	2,47
274,87	2,15
275,08	4,71
275,30	-12,72
275,51	-9,76
275,73	-13,51
275,94	-13,15
276,16	-3,47
276,37	-2,55
276,59	-3,18
276,80	1,50
277,02	-16,18
277,23	-10,78
277,45	-2,07
277,66	-9,95
277,88	-0,32
278,09	6,90
278,30	3,01
278,52	-11,56
278,73	7,67
278,95	-1,28
279,16	-13,04
279,38	-2,58
279,59	0,85
279,81	-6,84
280,02	-2,08
280,24	-4,19
280,45	-24,48
280,67	-6,79
280,88	12,15
281,09	4,89
281,31	4,56
281,52	-2,17
281,74	15,43
281,95	11,71
282,17	-16,35
282,38	-8,41
282,60	-17,48
282,81	-1,11
283,02	-1,66
283,24	5,88
283,45	4,49
283,67	-15,73
283,88	1,44
284,10	15,17
284,31	-19,60
284,53	4,22
284,74	-8,81
284,95	-7,92
285,17	-6,29
285,38	-7,44
285,60	8,94
285,81	-12,61
286,03	11,49
286,24	3,47
286,45	-1,43
286,67	19,34
286,88	5,62
287,10	26,28
287,31	-13,12
287,53	12,95
287,74	17,14
287,95	-11,67
288,17	6,67
288,38	8,17
288,60	6,41
288,81	3,44
289,02	-1,01
289,24	20,30
289,45	-11,44
289,67	2,62
289,88	29,30
290,10	-2,71
290,31	1,78
290,52	-13,03
290,74	14,43
290,95	3,49
291,17	4,96
291,38	4,87
291,59	24,95
291,81	-0,41
292,02	6,44
292,24	13,12
292,45	-5,92
292,66	-4,74
292,88	-10,52
293,09	-15,39
293,31	-4,22
293,52	-0,07
293,73	-8,09
293,95	1,34
294,16	-7,52
294,37	-20,47
294,59	17,43
294,80	-10,73
295,02	-4,86
295,23	21,59
295,44	-10,16
295,66	-8,73
295,87	-3,89
296,09	-8,61
296,30	-12,86
296,51	-2,08
296,73	-5,08
296,94	7,49
297,15	-22,35
297,37	14,87
297,58	-2,11
297,79	-9,24
298,01	12,75
298,22	-6,60
298,44	0,68
298,65	-2,46
298,86	4,01
299,08	5,99
299,29	-12,91
299,50	9,22
299,72	9,45
299,93	1,60
300,14	0,12
300,36	-11,04
300,57	-0,10
300,79	-27,23
301,00	1,67
301,21	0,86
301,43	-6,16
301,64	-4,86
301,85	5,68
302,07	13,50
302,28	6,77
302,49	-13,82
302,71	-0,77
302,92	0,06
303,13	8,48
303,35	2,19
303,56	4,90
303,77	-1,81
303,99	-20,80
304,20	29,21
304,41	-8,67
304,63	10,54
304,84	15,61
305,05	5,77
305,27	9,02
305,48	12,77
305,69	-14,56
305,91	6,78
306,12	-7,75
306,33	19,02
306,55	-1,06
306,76	-9,83
306,97	-8,04
307,19	-5,26
307,40	-8,19
307,61	8,59
307,82	-14,57
308,04	-0,78
308,25	-10,27
308,46	0,81
308,68	-3,65
308,89	-1,14
309,10	-2,36
309,32	-7,41
309,53	-14,14
309,74	-2,43
309,96	-15,40
310,17	-2,95
310,38	-9,76
310,59	1,38
310,81	5,95
311,02	18,63
311,23	5,32
311,45	-9,70
311,66	9,23
311,87	-4,31
312,09	-0,22
312,30	9,49
312,51	1,80
312,72	-6,73
312,94	-17,27
313,15	-16,64
313,36	6,90
313,58	-17,93
313,79	-4,80
314,00	-2,87
314,21	2,72
314,43	7,63
314,64	-0,95
314,85	5,16
315,06	-2,55
315,28	9,58
315,49	-8,11
315,70	15,41
315,92	-4,00
316,13	-8,13
316,34	20,47
316,55	13,06
316,77	6,75
316,98	-1,00
317,19	5,23
317,40	5,80
317,62	-16,87
317,83	-3,69
318,04	0,61
318,25	12,82
318,47	4,55
318,68	15,42
318,89	-20,66
319,11	-27,04
319,32	-7,13
319,53	-10,74
319,74	-13,68
319,96	-18,48
320,17	-3,11
320,38	-21,25
320,59	-0,68
320,81	9,90
321,02	-12,53
321,23	-4,08
321,44	-5,07
321,65	-6,86
321,87	6,02
322,08	21,18
322,29	4,80
322,50	-2,39
322,72	2,49
322,93	-14,15
323,14	-3,14
323,35	-0,31
323,57	-7,52
323,78	22,20
323,99	-2,65
324,20	-17,90
324,41	12,54
324,63	-1,24
324,84	-7,10
325,05	-5,70
325,26	13,20
325,48	4,58
325,69	-17,28
325,90	10,44
326,11	-7,98
326,32	1,28
326,54	-16,04
326,75	-1,06
326,96	8,80
327,17	-6,88
327,39	5,47
327,60	11,74
327,81	1,11
328,02	-3,37
328,23	4,83
328,45	-9,95
328,66	3,44
328,87	-0,95
329,08	6,20
329,29	23,81
329,51	32,12
329,72	50,96
329,93	69,97
330,14	62,70
330,35	48,31
330,56	34,27
330,78	27,25
330,99	13,21
331,20	19,65
331,41	21,69
331,62	8,30
331,84	-13,26
332,05	17,48
332,26	12,15
332,47	-6,05
332,68	5,89
332,90	2,37
333,11	13,54
333,32	-11,14
333,53	11,88
333,74	12,32
333,95	-4,24
334,17	-11,79
334,38	-0,48
334,59	15,00
334,80	-4,31
335,01	6,53
335,22	-4,66
335,44	2,90
335,65	-13,56
335,86	-12,99
336,07	-6,61
336,28	-20,37
336,49	7,85
336,71	29,14
336,92	4,23
337,13	-4,16
337,34	17,70
337,55	10,57
337,76	11,80
337,97	4,71
338,19	2,94
338,40	1,55
338,61	-6,12
338,82	-8,93
339,03	10,90
339,24	-32,50
339,45	-12,54
339,67	2,82
339,88	8,07
340,09	0,23
340,30	-2,19
340,51	-10,21
340,72	5,02
340,93	1,84
341,15	7,35
341,36	-24,75
341,57	6,26
341,78	27,47
341,99	1,53
342,20	-4,22
342,41	2,77
342,62	14,91
342,84	-21,61
343,05	9,80
343,26	0,64
343,47	-3,48
343,68	11,00
343,89	12,13
344,10	11,80
344,31	-12,44
344,53	10,86
344,74	4,58
344,95	-6,82
345,16	-4,39
345,37	-8,48
345,58	-2,24
345,79	8,19
346,00	8,53
346,21	1,58
346,42	-17,86
346,64	5,88
346,85	-8,70
347,06	9,72
347,27	4,47
347,48	-2,23
347,69	14,60
347,90	-6,14
348,11	-20,63
348,32	-2,15
348,53	-2,42
348,75	15,03
348,96	-0,90
349,17	-0,29
349,38	7,20
349,59	13,91
349,80	-11,66
350,01	4,98
350,22	-5,75
350,43	19,89
350,64	-7,30
350,85	-9,16
351,06	16,95
351,28	-17,91
351,49	-9,64
351,70	-1,78
351,91	-4,74
352,12	4,89
352,33	-6,62
352,54	10,96
352,75	-1,87
352,96	-1,07
353,17	13,33
353,38	-18,08
353,59	23,58
353,80	11,46
354,01	-2,29
354,22	0,87
354,44	3,27
354,65	20,80
354,86	9,84
355,07	6,32
355,28	9,07
355,49	-5,18
355,70	2,25
355,91	-4,08
356,12	-18,83
356,33	7,89
356,54	3,73
356,75	6,10
356,96	-15,63
357,17	1,45
357,38	8,59
357,59	1,75
357,80	-14,64
358,01	18,06
358,22	12,34
358,43	-10,08
358,64	-30,41
358,85	11,38
359,07	17,89
359,28	12,29
359,49	12,75
359,70	2,99
359,91	10,44
360,12	-5,79
360,33	2,65
360,54	-19,33
360,75	5,15
360,96	5,28
361,17	12,74
361,38	36,98
361,59	-5,05
361,80	5,20
362,01	10,28
362,22	11,04
362,43	22,18
362,64	2,73
362,85	21,15
363,06	-6,22
363,27	2,31
363,48	14,85
363,69	7,18
363,90	-7,82
364,11	-18,52
364,32	-0,51
364,53	-7,00
364,74	10,79
364,95	4,16
365,16	-28,38
365,37	-14,41
365,58	-14,13
365,79	-8,36
366,00	3,52
366,21	27,83
366,42	2,61
366,63	-1,62
366,84	-14,07
367,05	-22,35
367,26	3,63
367,47	8,93
367,68	14,25
367,89	6,67
368,10	-2,76
368,31	-0,51
368,52	-3,87
368,73	-1,77
368,94	-7,45
369,15	-1,09
369,36	18,71
369,57	5,42
369,78	-3,48
369,99	13,22
370,20	12,83
370,40	-9,26
370,61	-1,44
370,82	-13,69
371,03	2,30
371,24	-10,70
371,45	-7,60
371,66	-0,70
371,87	15,04
372,08	-9,80
372,29	1,56
372,50	-7,66
372,71	-31,15
372,92	17,49
373,13	14,97
373,34	10,38
373,55	4,70
373,76	-4,37
373,97	0,79
374,18	-7,90
374,39	-4,55
374,60	21,99
374,81	1,96
375,01	17,85
375,22	11,41
375,43	-18,70
375,64	-0,40
375,85	-0,46
376,06	5,42
376,27	2,39
376,48	-13,20
376,69	17,62
376,90	15,67
377,11	-11,21
377,32	10,37
377,53	16,70
377,74	-17,61
377,94	-0,00
378,15	-7,46
378,36	9,49
378,57	-9,56
378,78	0,80
378,99	-10,16
379,20	5,59
379,41	13,92
379,62	13,38
379,83	-1,94
380,04	1,77
380,25	-10,38
380,45	9,21
380,66	-11,23
380,87	0,75
381,08	-8,03
381,29	-6,21
381,50	-6,74
381,71	-8,09
381,92	4,54
382,13	-8,26
382,34	-21,60
382,55	-1,00
382,75	-12,09
382,96	20,55
383,17	-7,58
383,38	6,29
383,59	15,65
383,80	12,67
384,01	-10,85
384,22	14,97
384,43	-11,25
384,63	2,45
384,84	14,29
385,05	-22,57
385,26	21,58
385,47	-1,07
385,68	-24,00
385,89	12,36
386,10	6,33
386,30	-8,32
386,51	16,60
386,72	-1,68
386,93	-7,48
387,14	-13,98
387,35	6,52
387,56	0,57
387,77	6,94
387,97	10,98
388,18	-13,27
388,39	-9,94
388,60	-1,37
388,81	-14,02
389,02	0,41
389,23	2,72
389,43	11,78
389,64	0,35
389,85	-15,70
390,06	3,86
390,27	27,77
390,48	-9,17
390,69	-11,99
390,89	-9,49
391,10	-19,76
391,31	2,16
391,52	-7,91
391,73	-11,44
391,94	1,58
392,14	10,34
392,35	9,01
392,56	-8,15
392,77	-5,92
392,98	-1,52
393,19	4,22
393,39	20,69
393,60	12,63
393,81	-10,39
394,02	1,47
394,23	12,17
394,44	0,28
394,64	-4,28
394,85	-12,48
395,06	2,50
395,27	-13,70
395,48	3,06
395,69	22,21
395,89	0,38
396,10	-10,52
396,31	3,11
396,52	-5,73
396,73	5,92
396,93	5,84
397,14	8,36
397,35	7,29
397,56	-7,08
397,77	3,92
397,97	-16,52
398,18	-17,92
398,39	16,70
398,60	-27,83
398,81	17,60
399,01	7,69
399,22	-7,59
399,43	-6,07
399,64	-1,45
399,85	-15,84
400,05	-15,05
400,26	13,47
400,47	-11,03
400,68	10,24
400,89	4,24
401,09	-23,09
401,30	-7,71
401,51	8,08
401,72	-24,69
401,93	15,25
402,13	0,52
402,34	-15,17
402,55	-7,59
402,76	-1,55
402,96	9,38
403,17	3,29
403,38	3,72
403,59	-17,58
403,80	-26,64
404,00	-14,50
404,21	-11,50
404,42	9,17
404,63	-4,93
404,83	5,67
405,04	-1,09
405,25	0,68
405,46	-14,57
405,66	1,54
405,87	-6,57
406,08	-3,69
406,29	-11,34
406,49	-13,68
406,70	-4,30
406,91	-6,80
407,12	-5,68
407,32	1,31
407,53	-14,61
407,74	5,70
407,95	-16,03
408,15	-14,15
408,36	11,83
408,57	-6,68
408,78	-0,31
408,98	-0,10
409,19	-9,24
409,40	-2,90
409,61	4,79
409,81	-1,28
410,02	-21,90
410,23	-2,32
410,44	13,55
410,64	5,52
410,85	-8,82
411,06	16,29
411,26	18,88
411,47	12,10
411,68	-2,10
411,89	-3,72
412,09	-19,11
412,30	4,52
412,51	-10,40
412,72	3,67
412,92	-7,62
413,13	-6,34
413,34	-11,69
413,54	16,12
413,75	22,61
413,96	2,68
414,17	1,39
414,37	-12,32
414,58	-3,22
414,79	12,41
414,99	2,52
415,20	10,54
415,41	8,91
415,61	6,30
415,82	16,34
416,03	21,39
416,24	4,34
416,44	-0,35
416,65	3,34
416,86	5,43
417,06	-2,13
417,27	-7,76
417,48	4,53
417,68	5,50
417,89	-5,45
418,10	10,37
418,30	31,08
418,51	7,63
418,72	-0,87
418,92	-3,42
419,13	3,17
419,34	8,62
419,55	4,06
419,75	15,52
419,96	-1,65
420,17	-15,51
420,37	11,29
420,58	-19,51
420,79	-17,21
420,99	-26,66
421,20	-2,62
421,41	6,58
421,61	8,60
421,82	-3,21
422,03	7,39
422,23	-5,77
422,44	-10,57
422,65	-12,47
422,85	-8,00
423,06	8,32
423,26	-20,07
423,47	1,63
423,68	0,12
423,88	-3,69
424,09	-4,91
424,30	-9,13
424,50	5,45
424,71	2,48
424,92	14,06
425,12	15,61
425,33	19,45
425,54	0,41
425,74	11,03
425,95	25,44
426,15	8,37
426,36	11,15
426,57	-2,30
426,77	-20,96
426,98	12,05
427,19	1,08
427,39	10,79
427,60	-12,48
427,81	-9,89
428,01	-2,66
428,22	-2,20
428,42	14,71
428,63	12,05
428,84	4,26
429,04	-1,95
429,25	1,21
429,45	11,34
429,66	13,78
429,87	-6,10
430,07	13,67
430,28	15,99
430,49	10,69
430,69	-25,89
430,90	-3,93
431,10	-3,72
431,31	13,04
431,52	22,14
431,72	18,46
431,93	9,29
432,13	-9,69
432,34	-11,31
432,55	3,79
432,75	0,63
432,96	12,98
433,16	-1,80
433,37	7,53
433,58	-6,00
433,78	-5,00
433,99	-3,82
434,19	-8,59
434,40	0,97
434,60	-7,30
434,81	7,80
435,02	-0,90
435,22	-18,36
435,43	13,76
435,63	1,61
435,84	-14,14
436,05	0,15
436,25	-11,86
436,46	14,82
436,66	-13,33
436,87	-11,35
437,07	3,47
437,28	31,39
437,48	-4,03
437,69	13,07
437,90	10,75
438,10	-8,01
438,31	9,41
438,51	9,79
438,72	-11,03
438,92	25,54
439,13	-0,89
439,34	11,08
439,54	6,07
439,75	14,97
439,95	-3,16
440,16	10,31
440,36	-6,83
440,57	16,25
440,77	-19,93
440,98	6,06
441,18	11,80
441,39	19,43
441,60	3,85
441,80	9,90
442,01	-4,48
442,21	-3,81
442,42	8,28
442,62	-0,91
442,83	-13,46
443,03	-9,42
443,24	22,70
443,44	-4,48
443,65	-20,45
443,85	5,99
444,06	0,21
444,26	-4,92
444,47	0,78
444,67	10,94
444,88	-3,49
445,09	-4,99
445,29	8,67
445,50	-1,80
445,70	10,44
445,91	-14,27
446,11	3,12
446,32	-6,35
446,52	5,90
446,73	6,83
446,93	10,58
447,14	-24,75
447,34	13,86
447,55	16,30
447,75	10,47
447,96	-11,78
448,16	-9,80
448,37	9,97
448,57	-6,81
448,78	-18,11
448,98	-4,62
449,19	-1,81
449,39	-8,57
449,60	5,45
449,80	-21,85
450,01	-2,58
450,21	-22,16
450,42	7,86
450,62	4,86
450,83	7,08
451,03	-1,64
451,23	-3,84
451,44	12,96
451,64	-3,11
451,85	3,26
452,05	-4,00
452,26	-7,26
452,46	5,97
452,67	4,28
452,87	-33,82
453,08	-11,08
453,28	8,56
453,49	11,77
453,69	-27,52
453,90	17,84
454,10	-22,89
454,31	33,37
454,51	-0,43
454,71	33,42
454,92	5,47
455,12	13,43
455,33	9,00
455,53	39,62
455,74	5,85
455,94	2,55
456,15	-10,81
456,35	-4,36
456,55	-16,80
456,76	0,74
456,96	2,64
457,17	-21,51
457,37	21,54
457,58	-3,92
457,78	-14,22
457,99	15,55
458,19	-9,05
458,39	8,09
458,60	19,95
458,80	-14,87
459,01	14,87
459,21	-11,32
459,42	-19,63
459,62	-0,42
459,82	-8,58
460,03	1,15
460,23	10,01
460,44	16,70
460,64	26,41
460,85	-10,19
461,05	10,18
461,25	-7,26
461,46	-14,51
461,66	-11,75
461,87	16,25
462,07	2,01
462,27	-3,45
462,48	-9,17
462,68	6,03
462,89	-6,86
463,09	-15,24
463,29	-19,96
463,50	-17,59
463,70	0,95
463,91	-12,20
464,11	-12,55
464,31	-24,99
464,52	2,63
464,72	-5,46
464,93	-16,08
465,13	2,07
465,33	10,49
465,54	-3,36
465,74	-3,07
465,95	12,54
466,15	6,30
466,35	5,43
466,56	-8,61
466,76	22,83
466,96	9,32
467,17	22,29
467,37	-6,94
467,58	20,57
467,78	-5,40
467,98	-13,98
468,19	-13,23
468,39	-9,12
468,59	9,82
468,80	13,05
469,00	8,58
469,21	13,19
469,41	9,78
469,61	5,50
469,82	5,03
470,02	-7,91
470,22	-6,20
470,43	11,89
470,63	3,13
470,83	20,04
471,04	-12,45
471,24	15,36
471,45	-18,82
471,65	0,55
471,85	9,03
472,06	-11,23
472,26	9,91
472,46	10,45
472,67	10,81
472,87	-13,94
473,07	11,94
473,28	6,77
473,48	-8,12
473,68	17,89
473,89	0,42
474,09	9,73
474,29	-5,69
474,50	19,90
474,70	-8,20
474,90	-13,07
475,11	-4,16
475,31	8,36
475,51	0,24
475,72	-18,43
475,92	2,95
476,12	10,68
476,33	14,55
476,53	-4,67
476,73	-2,36
476,93	-15,01
477,14	-0,95
477,34	12,58
477,54	-11,39
477,75	-18,90
477,95	-9,26
478,15	23,40
478,36	-5,62
478,56	-10,26
478,76	-2,61
478,97	2,89
479,17	8,42
479,37	-9,45
479,57	7,41
479,78	-24,28
479,98	-15,56
480,18	5,49
480,39	-7,58
480,59	13,15
480,79	4,47
480,99	-14,08
481,20	-1,68
481,40	4,16
481,60	3,15
481,81	5,29
482,01	-3,13
482,21	27,94
482,41	11,73
482,62	0,89
482,82	11,22
483,02	-2,04
483,23	-14,24
483,43	20,63
483,63	-2,90
483,83	4,64
484,04	15,59
484,24	-0,73
484,44	15,55
484,64	39,92
484,85	17,15
485,05	2,54
485,25	0,43
485,45	7,56
485,66	2,92
485,86	1,52
486,06	-9,27
486,26	-4,44
486,47	14,59
486,67	-16,71
486,87	11,45
487,07	1,42
487,28	16,71
487,48	11,47
487,68	7,93
487,88	-4,25
488,09	4,73
488,29	-5,85
488,49	7,94
488,69	0,19
488,90	22,68
489,10	7,64
489,30	-17,46
489,50	-13,09
489,71	-2,22
489,91	-5,57
490,11	1,36
490,31	13,33
490,52	5,48
490,72	4,37
490,92	-12,77
491,12	6,22
491,32	-5,00
491,53	-8,19
491,73	4,60
491,93	4,77
492,13	1,38
492,33	7,13
492,54	42,28
492,74	33,46
492,94	10,99
493,14	15,92
493,35	13,61
493,55	25,81
493,75	11,74
493,95	-0,56
494,15	22,66
494,36	-2,93
494,56	6,10
494,76	8,82
494,96	9,72
495,16	-2,67
495,37	-19,62
495,57	6,48
495,77	-6,85
495,97	-18,18
496,17	-7,96
496,37	5,78
496,58	-14,23
496,78	23,29
496,98	2,54
497,18	11,99
497,38	35,71
497,59	35,91
497,79	12,42
497,99	21,45
498,19	22,35
498,39	3,01
498,59	11,38
498,80	4,20
499,00	8,80
499,20	5,15
499,40	0,24
499,60	-14,07
499,80	1,46
500,01	-10,01
500,21	-19,66
500,41	5,90
500,61	-7,13
500,81	-1,16
501,01	-4,25
501,22	-1,62
501,42	-19,63
501,62	-5,99
501,82	3,03
502,02	-13,41
502,22	-10,60
502,42	8,88
502,63	2,58
502,83	-17,22
503,03	16,29
503,23	-0,58
503,43	-13,58
503,63	-8,69
503,83	8,67
504,04	-13,48
504,24	-13,51
504,44	-13,83
504,64	9,22
504,84	-13,23
505,04	4,28
505,24	-3,88
505,44	0,28
505,65	1,25
505,85	-10,33
506,05	20,76
506,25	-5,10
506,45	-8,02
506,65	-3,58
506,85	17,64
507,05	6,39
507,26	-3,13
507,46	6,47
507,66	-5,59
507,86	-25,16
508,06	8,50
508,26	2,46
508,46	-6,53
508,66	21,70
508,86	-3,50
509,06	-8,95
509,27	3,75
509,47	-5,32
509,67	-5,73
509,87	15,49
510,07	-5,16
510,27	5,02
510,47	-8,85
510,67	10,40
510,87	12,92
511,07	-10,93
511,28	-2,66
511,48	-12,57
511,68	-5,82
511,88	-6,13
512,08	-12,14
512,28	11,17
512,48	5,16
512,68	11,54
512,88	-5,35
513,08	-11,69
513,28	17,50
513,48	-13,46
513,68	-7,63
513,89	20,22
514,09	7,82
514,29	37,84
514,49	-1,43
514,69	-2,25
514,89	22,99
515,09	16,85
515,29	13,15
515,49	3,02
515,69	-0,18
515,89	-14,83
516,09	8,99
516,29	-12,95
516,49	15,88
516,69	0,60
516,89	3,23
517,09	3,60
517,29	-3,48
517,50	15,09
517,70	6,98
517,90	1,23
518,10	14,00
518,30	-21,39
518,50	-5,47
518,70	-9,30
518,90	-26,21
519,10	2,97
519,30	-6,60
519,50	21,10
519,70	-11,08
519,90	5,06
520,10	10,78
520,30	-8,02
520,50	6,63
520,70	-11,10
520,90	3,27
521,10	3,98
521,30	10,01
521,50	-2,33
521,70	-4,16
521,90	6,96
522,10	12,06
522,30	1,06
522,50	-6,48
522,70	25,35
522,90	12,25
523,10	11,15
523,30	-6,29
523,50	-3,93
523,70	2,19
523,90	11,74
524,10	34,13
524,30	-13,37
524,50	-0,88
524,70	2,69
524,90	-19,16
525,10	13,28
525,30	12,47
525,50	-7,54
525,70	4,51
525,90	-16,40
526,10	-8,96
526,30	-5,90
526,50	-35,57
526,70	11,85
526,90	-17,60
527,10	-6,23
527,30	18,58
527,50	4,70
527,70	5,11
527,90	-2,30
528,10	29,38
528,30	10,84
528,50	13,23
528,70	19,04
528,90	5,86
529,10	-1,21
529,30	17,57
529,50	2,38
529,70	6,88
529,90	3,60
530,10	5,95
530,29	-1,68
530,49	2,91
530,69	3,54
530,89	19,23
531,09	10,72
531,29	3,02
531,49	-10,59
531,69	-13,19
531,89	3,82
532,09	-19,77
532,29	12,13
532,49	1,81
532,69	-16,05
532,89	5,20
533,09	-10,69
533,29	10,87
533,49	10,90
533,68	6,17
533,88	4,23
534,08	29,81
534,28	-17,86
534,48	-0,81
534,68	11,71
534,88	11,28
535,08	-7,98
535,28	8,43
535,48	-13,32
535,68	-12,25
535,88	5,18
536,08	-0,73
536,27	-11,16
536,47	-11,73
536,67	7,87
536,87	8,14
537,07	1,13
537,27	-1,77
537,47	-3,18
537,67	-21,38
537,87	12,98
538,07	13,85
538,27	-11,76
538,46	5,61
538,66	15,55
538,86	-0,03
539,06	-0,42
539,26	-10,87
539,46	-6,07
539,66	-2,04
539,86	13,28
540,06	6,69
540,25	16,09
540,45	12,02
540,65	-1,31
540,85	-6,57
541,05	12,85
541,25	-8,02
541,45	11,14
541,65	-10,03
541,85	-1,44
542,04	17,36
542,24	-1,66
542,44	5,25
542,64	22,23
542,84	-3,61
543,04	3,78
543,24	-12,04
543,43	-4,10
543,63	10,70
543,83	12,54
544,03	2,23
544,23	-7,81
544,43	20,84
544,63	7,98
544,82	5,78
545,02	-1,58
545,22	-11,34
545,42	22,27
545,62	16,96
545,82	-11,50
546,02	6,52
546,21	-11,81
546,41	-7,60
546,61	-13,70
546,81	13,04
547,01	-11,23
547,21	5,97
547,40	-2,31
547,60	-0,49
547,80	15,28
548,00	-3,89
548,20	1,26
548,40	2,55
548,59	4,19
548,79	18,56
548,99	-15,13
549,19	7,54
549,39	5,77
549,59	-8,99
549,78	-22,09
549,98	10,43
550,18	16,77
550,38	1,08
550,58	-5,91
550,77	-4,00
550,97	14,77
551,17	-17,03
551,37	23,58
551,57	10,00
551,76	-16,19
551,96	3,02
552,16	-2,54
552,36	11,11
552,56	4,84
552,75	-2,61
552,95	19,60
553,15	15,61
553,35	12,25
553,55	2,36
553,74	-16,09
553,94	15,86
554,14	-4,21
554,34	2,92
554,54	3,69
554,73	1,74
554,93	6,40
555,13	9,73
555,33	-1,37
555,53	-8,80
555,72	14,62
555,92	18,48
556,12	11,61
556,32	-4,82
556,51	25,51
556,71	-2,06
556,91	-9,43
557,11	-10,17
557,30	-5,33
557,50	4,93
557,70	7,04
557,90	-10,92
558,10	7,88
558,29	23,47
558,49	14,06
558,69	-0,93
558,89	2,29
559,08	16,21
559,28	2,86
559,48	4,20
559,68	-4,20
559,87	3,18
560,07	15,01
560,27	27,29
560,47	-3,11
560,66	6,77
560,86	4,92
561,06	2,85
561,25	0,45
561,45	10,94
561,65	24,93
561,85	7,55
562,04	5,46
562,24	-14,46
562,44	14,95
562,64	-2,67
562,83	14,82
563,03	1,96
563,23	-6,85
563,42	22,33
563,62	-14,79
563,82	6,97
564,02	8,30
564,21	19,35
564,41	17,85
564,61	17,42
564,80	-2,54
565,00	-1,44
565,20	13,37
565,40	-25,52
565,59	10,06
565,79	-4,53
565,99	24,86
566,18	5,39
566,38	26,06
566,58	5,15
566,78	39,44
566,97	56,53
567,17	67,20
567,37	128,15
567,56	172,58
567,76	258,39
567,96	282,18
568,15	292,06
568,35	276,44
568,55	249,63
568,74	173,30
568,94	124,82
569,14	118,73
569,33	59,32
569,53	44,87
569,73	43,26
569,92	35,67
570,12	17,88
570,32	1,66
570,52	25,13
570,71	9,54
570,91	33,46
571,11	23,71
571,30	29,84
571,50	31,13
571,70	39,80
571,89	44,28
572,09	11,33
572,28	17,28
572,48	29,60
572,68	30,92
572,87	46,03
573,07	45,30
573,27	17,15
573,46	26,23
573,66	31,44
573,86	13,80
574,05	8,61
574,25	29,22
574,45	29,72
574,64	29,20
574,84	44,41
575,04	26,18
575,23	28,48
575,43	10,69
575,62	20,50
575,82	31,50
576,02	12,85
576,21	16,77
576,41	22,97
576,61	13,20
576,80	23,70
577,00	22,40
577,19	19,29
577,39	31,50
577,59	18,34
577,78	12,33
577,98	21,96
578,18	37,06
578,37	25,56
578,57	41,63
578,76	19,43
578,96	14,12
579,16	26,74
579,35	6,18
579,55	28,73
579,74	-9,34
579,94	11,14
580,14	7,50
580,33	38,28
580,53	39,26
580,72	41,77
580,92	37,12
581,12	30,78
581,31	33,43
581,51	37,59
581,70	45,92
581,90	26,88
582,10	38,56
582,29	37,33
582,49	44,45
582,68	51,00
582,88	33,11
583,07	47,56
583,27	49,75
583,47	85,99
583,66	78,44
583,86	115,05
584,05	149,93
584,25	153,31
584,44	165,47
584,64	147,20
584,84	187,58
585,03	159,94
585,23	162,87
585,42	164,89
585,62	154,75
585,81	140,92
586,01	137,89
586,20	164,78
586,40	202,72
586,60	201,78
586,79	223,41
586,99	293,35
587,18	603,99
587,38	2388,46
587,57	8768,97
587,77	20843,95
587,96	35948,18
588,16	51444,92
588,35	63898,38
588,55	64155,69
588,75	64135,21
588,94	64137,67
589,14	62362,26
589,33	50522,36
589,53	37129,46
589,72	24301,73
589,92	15998,21
590,11	10505,85
590,31	6965,36
590,50	4484,78
590,70	2856,95
590,89	1861,86
591,09	1158,55
591,28	746,48
591,48	473,19
591,67	346,34
591,87	259,31
592,06	226,65
592,26	214,52
592,45	167,94
592,65	134,87
592,84	140,92
593,04	101,31
593,23	109,42
593,43	102,21
593,62	99,32
593,82	100,37
594,01	82,43
594,21	75,27
594,40	61,30
594,60	87,74
594,79	75,29
594,99	74,73
595,18	73,50
595,38	50,58
595,57	79,86
595,77	59,88
595,96	73,71
596,16	37,90
596,35	61,97
596,55	40,91
596,74	43,97
596,94	48,59
597,13	60,36
597,33	44,88
597,52	36,28
597,72	36,25
597,91	52,92
598,11	26,07
598,30	21,88
598,50	36,84
598,69	45,40
598,88	43,98
599,08	29,84
599,27	34,39
599,47	38,45
599,66	16,02
599,86	33,08
600,05	19,05
600,25	27,01
600,44	29,51
600,64	47,31
600,83	35,62
601,02	16,84
601,22	14,71
601,41	24,35
601,61	24,56
601,80	41,30
602,00	25,87
602,19	36,66
602,38	32,03
602,58	14,80
602,77	25,39
602,97	22,50
603,16	38,86
603,36	38,11
603,55	38,38
603,74	23,34
603,94	31,22
604,13	7,48
604,33	23,13
604,52	8,06
604,72	7,36
604,91	21,01
605,10	26,28
605,30	30,66
605,49	31,69
605,69	40,63
605,88	24,90
606,07	11,78
606,27	29,33
606,46	20,15
606,66	12,75
606,85	13,15
607,04	-8,12
607,24	10,94
607,43	-7,35
607,63	10,36
607,82	25,35
608,01	29,96
608,21	24,53
608,40	11,21
608,60	-14,22
608,79	8,87
608,98	14,38
609,18	12,14
609,37	5,88
609,57	18,64
609,76	26,81
609,95	1,01
610,15	-10,97
610,34	20,46
610,53	21,85
610,73	17,88
610,92	2,70
611,11	15,59
611,31	15,34
611,50	19,06
611,70	7,21
611,89	17,31
612,08	38,55
612,28	20,70
612,47	-3,97
612,66	11,86
612,86	8,41
613,05	8,46
613,24	37,27
613,44	23,75
613,63	18,59
613,82	32,18
614,02	4,34
614,21	22,78
614,41	14,07
614,60	40,06
614,79	37,42
614,99	50,71
615,18	72,31
615,37	56,56
615,57	56,37
615,76	82,52
615,95	55,64
616,15	37,38
616,34	14,43
616,53	-0,95
616,73	20,38
616,92	21,54
617,11	15,37
617,30	-19,37
617,50	17,24
617,69	-11,14
617,88	16,75
618,08	0,62
618,27	10,53
618,46	11,90
618,66	17,92
618,85	20,36
619,04	3,57
619,24	25,87
619,43	6,71
619,62	8,12
619,82	19,18
620,01	-0,17
620,20	42,21
620,39	-0,72
620,59	-7,31
620,78	13,34
620,97	16,73
621,17	-10,36
621,36	5,66
621,55	6,02
621,74	0,99
621,94	8,69
622,13	20,46
622,32	16,39
622,52	28,17
622,71	5,85
622,90	-2,05
623,09	16,94
623,29	1,61
623,48	-2,03
623,67	5,62
623,86	2,55
624,06	-0,82
624,25	-7,07
624,44	23,42
624,64	10,50
624,83	9,86
625,02	-6,23
625,21	0,81
625,41	4,41
625,60	14,54
625,79	13,96
625,98	10,94
626,18	-5,00
626,37	2,30
626,56	5,12
626,75	3,03
626,95	-0,83
627,14	11,57
627,33	5,46
627,52	3,24
627,72	10,85
627,91	30,47
628,10	-3,28
628,29	10,03
628,49	-8,48
628,68	8,65
628,87	0,83
629,06	14,02
629,25	10,51
629,45	-1,24
629,64	4,28
629,83	23,36
630,02	-3,46
630,22	25,70
630,41	7,71
630,60	13,72
630,79	13,16
630,98	6,74
631,18	-3,14
631,37	16,34
631,56	15,88
631,75	-10,39
631,94	-0,27
632,14	18,49
632,33	5,88
632,52	-15,50
632,71	15,51
632,90	34,41
633,10	4,58
633,29	-13,21
633,48	16,12
633,67	8,76
633,86	18,22
634,06	9,72
634,25	12,32
634,44	12,34
634,63	-0,99
634,82	10,75
635,02	11,00
635,21	16,92
635,40	-1,67
635,59	9,44
635,78	27,88
635,97	20,34
636,17	-8,05
636,36	8,98
636,55	-0,47
636,74	24,93
636,93	-15,44
637,12	2,56
637,32	9,65
637,51	-1,78
637,70	17,98
637,89	4,76
638,08	11,93
638,27	-3,77
638,47	6,43
638,66	11,22
638,85	-2,73
639,04	-7,83
639,23	26,46
639,42	19,20
639,62	-12,30
639,81	-5,67
640,00	13,42
640,19	-11,89
640,38	-0,49
640,57	24,16
640,76	11,15
640,95	16,19
641,15	1,96
641,34	-1,84
641,53	-9,13
641,72	-4,43
641,91	-0,41
642,10	7,80
642,29	11,27
642,49	-0,37
642,68	9,25
642,87	-2,39
643,06	-9,40
643,25	-7,96
643,44	0,24
643,63	13,89
643,82	-0,42
644,01	-0,59
644,21	2,49
644,40	5,71
644,59	3,06
644,78	-5,67
644,97	-5,49
645,16	4,63
645,35	-7,37
645,54	7,08
645,73	-1,47
645,92	-9,98
646,12	6,64
646,31	-17,12
646,50	-1,32
646,69	-24,83
646,88	6,79
647,07	7,46
647,26	-1,25
647,45	20,45
647,64	12,90
647,83	-3,18
648,02	-14,91
648,22	-5,44
648,41	9,43
648,60	2,48
648,79	5,86
648,98	17,73
649,17	-3,93
649,36	9,20
649,55	2,07
649,74	33,31
649,93	1,81
650,12	3,00
650,31	4,46
650,50	-8,20
650,69	19,30
650,88	7,24
651,08	18,26
651,27	-2,89
651,46	12,30
651,65	9,40
651,84	-13,41
652,03	6,95
652,22	5,64
652,41	-16,89
652,60	9,68
652,79	15,50
652,98	10,22
653,17	27,36
653,36	21,88
653,55	10,70
653,74	18,14
653,93	6,84
654,12	-3,77
654,31	-0,70
654,50	5,69
654,69	7,45
654,88	0,26
655,07	8,76
655,26	2,89
655,45	-0,07
655,64	3,47
655,83	3,46
656,02	-5,89
656,21	-13,76
656,40	-8,65
656,59	25,42
656,78	-8,37
656,97	8,61
657,17	10,44
657,36	-14,53
657,55	-19,45
657,74	24,11
657,93	28,31
658,12	10,30
658,31	3,48
658,50	-1,58
658,69	9,79
658,87	5,70
659,06	9,61
659,25	2,62
659,44	13,78
659,63	-21,92
659,82	19,85
660,01	-9,11
660,20	2,06
660,39	11,45
660,58	22,26
660,77	17,02
660,96	12,87
661,15	-12,18
661,34	4,48
661,53	8,43
661,72	-25,29
661,91	8,73
662,10	-17,63
662,29	5,46
662,48	7,03
662,67	20,32
662,86	9,28
663,05	12,48
663,24	7,99
663,43	-6,34
663,62	-10,18
663,81	12,49
664,00	-12,24
664,19	9,67
664,38	-28,58
664,57	5,56
664,76	19,96
664,94	1,71
665,13	6,03
665,32	2,88
665,51	-10,47
665,70	1,73
665,89	-4,97
666,08	-13,29
666,27	-2,57
666,46	5,88
666,65	7,98
666,84	7,17
667,03	22,76
667,22	-2,59
667,41	23,28
667,60	3,11
667,78	-6,53
667,97	-1,92
668,16	4,52
668,35	1,22
668,54	11,44
668,73	8,07
668,92	-7,12
669,11	1,45
669,30	-27,66
669,49	-13,96
669,68	-19,62
669,86	12,09
670,05	-10,16
670,24	8,51
670,43	3,15
670,62	23,69
670,81	-1,15
671,00	-12,99
671,19	0,37
671,38	4,74
671,57	14,61
671,75	-5,24
671,94	-4,21
672,13	3,97
672,32	24,43
672,51	7,49
672,70	1,76
672,89	1,14
673,08	-0,93
673,26	8,48
673,45	-8,15
673,64	9,29
673,83	-5,70
674,02	6,74
674,21	-2,00
674,40	-0,42
674,59	21,07
674,77	-10,98
674,96	7,58
675,15	9,41
675,34	0,30
675,53	-0,23
675,72	4,38
675,91	1,25
676,09	-10,50
676,28	-21,84
676,47	5,06
676,66	-22,70
676,85	-12,68
677,04	5,53
677,22	10,85
677,41	1,82
677,60	-11,77
677,79	3,49
677,98	-15,65
678,17	14,99
678,36	-0,45
678,54	12,00
678,73	0,22
678,92	-4,93
679,11	-13,12
679,30	-3,15
679,48	14,48
679,67	18,06
679,86	2,58
680,05	19,51
680,24	22,17
680,43	-17,05
680,61	-7,69
680,80	14,96
680,99	13,60
681,18	9,05
681,37	24,27
681,55	2,92
681,74	0,17
681,93	-17,61
682,12	-21,97
682,31	23,89
682,49	30,32
682,68	-15,50
682,87	6,86
683,06	15,08
683,25	6,76
683,43	-9,99
683,62	-0,96
683,81	-0,17
684,00	-7,05
684,19	0,39
684,37	-0,68
684,56	-4,26
684,75	-1,08
684,94	13,29
685,12	7,63
685,31	2,51
685,50	5,15
685,69	18,24
685,88	8,28
686,06	-0,72
686,25	13,86
686,44	-4,79
686,63	23,36
686,81	2,71
687,00	14,35
687,19	7,62
687,38	13,37
687,56	13,73
687,75	-19,08
687,94	-1,80
688,13	-9,85
688,31	5,53
688,50	12,45
688,69	3,29
688,88	5,20
689,06	-8,37
689,25	4,03
689,44	5,69
689,63	6,99
689,81	9,84
690,00	-4,44
690,19	-2,48
690,38	26,86
690,56	5,64
690,75	3,35
690,94	-19,63
691,13	8,46
691,31	-10,95
691,50	-5,94
691,69	6,20
691,87	12,93
692,06	-25,01
692,25	-7,92
692,44	1,06
692,62	-18,27
692,81	-7,46
693,00	14,60
693,18	-32,30
693,37	13,60
693,56	-12,08
693,75	-4,12
693,93	32,56
694,12	8,66
694,31	-10,04
694,49	10,29
694,68	-7,30
694,87	12,26
695,05	33,74
695,24	108,62
695,43	169,24
695,62	236,81
695,80	258,09
695,99	303,41
696,18	285,73
696,36	243,15
696,55	150,94
696,74	117,84
696,92	77,19
697,11	54,24
697,30	5,34
697,48	29,44
697,67	39,54
697,86	7,78
698,04	-10,49
698,23	11,16
698,42	13,01
698,60	2,56
698,79	21,27
698,98	29,00
699,16	-4,22
699,35	-7,65
699,54	29,97
699,72	9,01
699,91	3,49
700,10	-0,25
700,28	2,81
700,47	-5,10
700,66	-7,85
700,84	12,83
701,03	3,04
701,21	-2,70
701,40	3,98
701,59	-7,70
701,77	14,64
701,96	6,27
702,15	9,25
702,33	-0,77
702,52	4,21
702,71	-22,68
702,89	25,73
703,08	-7,87
703,26	-0,29
703,45	-8,01
703,64	13,06
703,82	26,39
704,01	-7,18
704,20	15,50
704,38	-1,81
704,57	-22,51
704,75	1,87
704,94	13,48
705,13	4,45
705,31	39,74
705,50	82,85
705,68	129,28
705,87	199,68
706,06	186,96
706,24	182,28
706,43	132,43
706,61	104,65
706,80	95,97
706,99	41,50
707,17	43,34
707,36	35,16
707,54	33,12
707,73	20,64
707,92	-0,61
708,10	25,24
708,29	19,62
708,47	6,11
708,66	12,99
708,84	12,86
709,03	4,22
709,22	6,73
709,40	-4,77
709,59	-5,28
709,77	-1,34
709,96	-17,07
710,14	0,26
710,33	-3,19
710,52	13,62
710,70	15,60
710,89	-24,24
711,07	8,10
711,26	0,89
711,44	-2,27
711,63	-6,39
711,81	-5,68
712,00	-8,28
712,19	-4,82
712,37	-18,72
712,56	9,53
712,74	-2,11
712,93	-20,17
713,11	18,71
713,30	31,02
713,48	17,07
713,67	-5,62
713,85	22,27
714,04	8,71
714,22	-2,48
714,41	9,97
714,59	13,04
714,78	-1,57
714,97	15,01
715,15	14,61
715,34	10,20
715,52	-0,44
715,71	-9,80
715,89	-7,42
716,08	17,97
716,26	0,34
716,45	-5,33
716,63	-4,51
716,82	-7,07
717,00	10,36
717,19	-0,83
717,37	26,16
717,56	15,42
717,74	7,75
717,93	19,49
718,11	11,16
718,30	-17,32
718,48	9,22
718,67	-32,94
718,85	-14,57
719,04	3,20
719,22	-0,40
719,41	13,21
719,59	-7,90
719,78	3,24
719,96	-7,53
720,15	-0,80
720,33	14,64
720,52	8,67
720,70	6,00
720,88	14,92
721,07	-9,72
721,25	8,16
721,44	14,07
721,62	8,86
721,81	27,94
721,99	-13,36
722,18	-0,15
722,36	2,76
722,55	-12,84
722,73	1,31
722,92	-2,11
723,10	-6,79
723,28	-8,46
723,47	11,73
723,65	-5,73
723,84	-6,59
724,02	2,25
724,21	23,74
724,39	-8,53
724,58	-3,62
724,76	-24,96
724,94	2,74
725,13	-8,18
725,31	-2,64
725,50	-14,17
725,68	-1,94
725,87	-12,32
726,05	44,50
726,23	53,96
726,42	46,62
726,60	56,72
726,79	47,37
726,97	51,13
727,16	37,32
727,34	25,26
727,52	21,77
727,71	10,75
727,89	21,10
728,08	2,57
728,26	2,36
728,44	22,83
728,63	11,33
728,81	9,81
729,00	-8,61
729,18	5,18
729,36	18,30
729,55	-8,83
729,73	19,18
729,92	18,00
730,10	-5,99
730,28	-17,01
730,47	5,50
730,65	5,59
730,84	13,22
731,02	-11,59
731,20	4,47
731,39	-3,33
731,57	14,33
731,75	8,52
731,94	-14,56
732,12	0,52
732,31	0,48
732,49	16,62
732,67	-16,26
732,86	-8,63
733,04	-2,66
733,22	17,37
733,41	15,93
733,59	11,28
733,78	5,44
733,96	11,01
734,14	-18,64
734,33	4,40
734,51	0,89
734,69	-8,35
734,88	-2,59
735,06	10,63
735,24	9,68
735,43	26,69
735,61	-0,04
735,79	7,30
735,98	34,55
736,16	-20,14
736,34	7,17
736,53	16,71
736,71	13,40
736,89	34,76
737,08	84,52
737,26	168,86
737,44	269,85
737,63	303,74
737,81	333,29
737,99	325,38
738,18	263,05
738,36	216,54
738,54	121,33
738,73	100,15
738,91	58,87
739,09	46,86
739,28	15,43
739,46	0,31
739,64	21,05
739,82	10,53
740,01	-3,86
740,19	27,02
740,37	0,65
740,56	1,41
740,74	-4,42
740,92	8,68
741,11	6,39
741,29	-1,95
741,47	9,45
741,65	-5,65
741,84	12,15
742,02	-8,90
742,20	15,98
742,39	-2,22
742,57	12,12
742,75	1,71
742,93	13,57
743,12	-2,25
743,30	27,17
743,48	7,02
743,67	-11,89
743,85	16,37
744,03	6,15
744,21	1,83
744,40	2,43
744,58	-2,93
744,76	-3,76
744,94	8,18
745,13	33,88
745,31	-1,71
745,49	27,27
745,67	9,79
745,86	-12,29
746,04	-11,90
746,22	19,15
746,40	16,89
746,59	-9,25
746,77	-9,40
746,95	-6,93
747,13	-1,40
747,32	14,81
747,50	29,83
747,68	5,64
747,86	-1,73
748,05	15,37
748,23	-7,93
748,41	-27,76
748,59	14,48
748,77	11,28
748,96	52,57
749,14	89,17
749,32	127,01
749,50	198,60
749,69	266,08
749,87	249,92
750,05	281,90
750,23	284,62
750,41	292,17
750,60	296,66
750,78	305,10
750,96	302,00
751,14	235,21
751,32	192,40
751,51	106,04
751,69	78,85
751,87	47,18
752,05	25,29
752,23	18,20
752,42	-5,58
752,60	7,50
752,78	5,07
752,96	7,81
753,14	-9,46
753,33	-5,57
753,51	-11,00
753,69	-4,02
753,87	-0,35
754,05	-2,75
754,23	-0,27
754,42	12,91
754,60	9,00
754,78	-3,74
754,96	8,39
755,14	3,42
755,32	-11,48
755,51	-21,48
755,69	5,38
755,87	-1,07
756,05	-16,00
756,23	8,44
756,41	-8,96
756,60	9,41
756,78	6,38
756,96	-10,61
757,14	10,85
757,32	3,85
757,50	-17,01
757,68	11,35
757,87	-11,62
758,05	14,16
758,23	5,82
758,41	-2,48
758,59	-6,19
758,77	-16,50
758,95	0,70
759,14	1,58
759,32	17,71
759,50	-0,99
759,68	-15,36
759,86	3,48
760,04	-2,59
760,22	1,85
760,40	17,79
760,59	13,03
760,77	5,54
760,95	15,16
761,13	17,99
761,31	-4,13
761,49	8,43
761,67	11,32
761,85	62,67
762,03	170,02
762,22	427,29
762,40	800,05
762,58	1109,38
762,76	1326,02
762,94	1395,18
763,12	1318,93
763,30	1103,01
763,48	752,03
763,66	484,27
763,84	272,00
764,02	164,07
764,21	94,53
764,39	69,99
764,57	32,37
764,75	39,80
764,93	24,68
765,11	41,08
765,29	79,64
765,47	111,89
765,65	122,02
765,83	126,98
766,01	143,75
766,19	125,92
766,37	93,35
766,56	44,45
766,74	25,93
766,92	31,11
767,10	7,97
767,28	9,46
767,46	7,38
767,64	24,51
767,82	11,08
768,00	-2,51
768,18	2,68
768,36	14,29
768,54	6,42
768,72	20,27
768,90	58,68
769,08	62,93
769,26	68,11
769,44	86,86
769,62	61,14
769,80	50,89
769,98	16,63
770,16	36,89
770,34	20,68
770,52	0,74
770,71	-21,29
770,89	53,85
771,07	128,47
771,25	242,43
771,43	384,70
771,61	482,99
771,79	563,56
771,97	501,26
772,15	413,19
772,33	288,83
772,51	169,39
772,69	88,57
772,87	55,36
773,05	44,13
773,23	32,62
773,41	44,03
773,59	11,06
773,77	25,57
773,95	20,64
774,13	-2,50
774,31	-18,11
774,49	-3,41
774,67	0,17
774,85	19,31
775,03	4,89
775,21	13,05
775,39	-14,60
775,57	-9,78
775,75	-23,92
775,93	-17,61
776,10	-13,63
776,28	1,77
776,46	13,95
776,64	-2,38
776,82	-1,66
777,00	-4,64
777,18	13,22
777,36	-12,82
777,54	3,88
777,72	1,53
777,90	-21,03
778,08	10,01
778,26	1,33
778,44	7,16
778,62	-3,20
778,80	14,25
778,98	-23,04
779,16	8,29
779,34	0,50
779,52	-10,21
779,70	-3,24
779,88	-18,34
780,05	3,30
780,23	19,16
780,41	5,53
780,59	-10,89
780,77	-8,10
780,95	24,29
781,13	-1,53
781,31	-12,95
781,49	-9,22
781,67	4,77
781,85	4,92
782,03	-13,63
782,21	21,83
782,39	-9,65
782,56	-25,38
782,74	13,87
782,92	1,03
783,10	19,13
783,28	17,89
783,46	-10,13
783,64	8,41
783,82	-13,33
784,00	3,25
784,18	25,97
784,35	38,39
784,53	3,89
784,71	16,38
784,89	11,97
785,07	-12,28
785,25	4,07
785,43	-5,00
785,61	-0,75
785,79	-14,04
785,96	17,02
786,14	13,56
786,32	8,38
786,50	1,19
786,68	27,92
786,86	-20,07
787,04	-8,67
787,22	9,54
787,39	2,09
787,57	6,43
787,75	5,95
787,93	15,58
788,11	-0,39
788,29	3,34
788,47	-7,71
788,65	-0,36
788,82	22,37
789,00	12,40
789,18	-32,27
789,36	37,59
789,54	0,73
789,72	-23,26
789,89	-1,47
790,07	0,04
790,25	-0,19
790,43	-36,18
790,61	-27,04
790,79	4,65
790,96	-7,29
791,14	15,56
791,32	-14,72
791,50	12,53
791,68	2,29
791,86	0,13
792,03	6,89
792,21	-0,26
792,39	-3,01
792,57	5,27
792,75	3,19
792,93	-3,34
793,10	-6,95
793,28	16,09
793,46	79,97
793,64	162,01
793,82	185,96
793,99	225,25
794,17	266,69
794,35	249,95
794,53	190,21
794,71	127,97
794,88	78,68
795,06	60,09
795,24	14,80
795,42	9,01
795,60	17,55
795,77	15,99
795,95	2,51
796,13	8,95
796,31	-2,79
796,49	-4,13
796,66	12,01
796,84	2,80
797,02	-4,74
797,20	-9,25
797,37	-6,92
797,55	-3,24
797,73	-1,43
797,91	-13,36
798,08	-20,27
798,26	5,88
798,44	6,60
798,62	9,53
798,80	32,26
798,97	-3,06
799,15	13,68
799,33	47,95
799,51	82,25
799,68	125,04
799,86	138,99
800,04	189,17
800,22	211,89
800,39	257,36
800,57	267,12
800,75	300,09
800,93	245,14
801,10	238,58
801,28	169,08
801,46	121,25
801,63	89,41
801,81	40,72
801,99	27,15
802,17	31,72
802,34	16,67
802,52	32,94
802,70	4,32
802,88	14,69
803,05	19,25
803,23	-16,06
803,41	10,90
803,58	6,98
803,76	7,06
803,94	-3,39
804,12	-2,62
804,29	19,11
804,47	-2,94
804,65	8,77
804,82	-2,39
805,00	-1,54
805,18	3,53
805,35	8,34
805,53	-7,63
805,71	9,54
805,89	3,40
806,06	-10,60
806,24	1,18
806,42	19,58
806,59	10,06
806,77	0,48
806,95	10,53
807,12	-8,08
807,30	8,91
807,48	22,98
807,65	-3,32
807,83	1,82
808,01	-2,26
808,18	11,05
808,36	-5,48
808,54	-0,62
808,71	11,24
808,89	15,18
809,07	85,61
809,24	175,75
809,42	252,67
809,60	266,49
809,77	303,88
809,95	343,69
810,13	404,69
810,30	506,18
810,48	690,96
810,66	823,95
810,83	935,27
811,01	874,40
811,18	769,36
811,36	631,76
811,54	441,40
811,71	315,11
811,89	182,11
812,07	132,11
812,24	86,26
812,42	59,34
812,59	60,68
812,77	23,77
812,95	47,45
813,12	26,25
813,30	17,96
813,48	5,52
813,65	14,31
813,83	10,61
814,00	36,48
814,18	11,66
814,36	26,40
814,53	7,43
814,71	17,64
814,88	4,98
815,06	8,25
815,24	-1,87
815,41	-16,85
815,59	0,74
815,76	-11,73
815,94	3,57
816,12	-18,37
816,29	22,34
816,47	11,79
816,64	6,17
816,82	47,42
817,00	95,35
817,17	167,72
817,35	262,43
817,52	337,24
817,70	369,90
817,87	385,47
818,05	415,98
818,23	442,10
818,40	532,40
818,58	614,09
818,75	647,12
818,93	648,51
819,10	607,68
819,28	476,32
819,46	378,53
819,63	266,64
819,81	160,30
819,98	113,12
820,16	87,60
820,33	70,77
820,51	55,14
820,68	53,56
820,86	24,58
821,03	18,19
821,21	23,36
821,39	-0,10
821,56	31,19
821,74	34,82
821,91	13,63
822,09	3,80
822,26	-1,44
822,44	12,49
822,61	2,47
822,79	14,06
822,96	21,29
823,14	-6,55
823,31	-17,89
823,49	3,80
823,66	19,09
823,84	8,28
824,01	16,23
824,19	-0,82
824,36	13,10
824,54	12,31
824,71	12,12
824,89	0,61
825,06	42,43
825,24	66,55
825,41	89,28
825,59	115,10
825,76	113,60
825,94	145,34
826,11	139,91
826,29	72,77
826,46	78,99
826,64	38,56
826,81	35,37
826,99	29,73
827,16	29,09
827,34	12,54
827,51	-7,76
827,69	13,12
827,86	9,32
828,04	12,66
828,21	-1,85
828,39	-7,31
828,56	2,40
828,74	0,81
828,91	3,70
829,09	-4,30
829,26	6,11
829,43	-28,21
829,61	4,70
829,78	3,12
829,96	13,02
830,13	-2,92
830,31	-4,30
830,48	19,63
830,66	-0,48
830,83	8,09
831,01	-13,20
831,18	4,84
831,35	-6,45
831,53	-1,42
831,70	6,92
831,88	-1,79
832,05	1,78
832,23	13,22
832,40	-18,11
832,57	-0,55
832,75	10,22
832,92	-26,06
833,10	8,88
833,27	31,32
833,45	-4,88
833,62	-7,52
833,79	-6,28
833,97	4,57
834,14	16,82
834,32	1,60
834,49	-16,17
834,66	-6,91
834,84	15,91
835,01	-19,33
835,19	-10,75
835,36	-11,90
835,53	-15,42
835,71	-13,59
835,88	8,24
836,06	-24,37
836,23	-2,29
836,40	25,41
836,58	4,05
836,75	-1,32
836,93	2,42
837,10	17,45
837,27	5,05
837,45	22,57
837,62	-10,33
837,79	-10,66
837,97	13,73
838,14	6,96
838,32	11,76
838,49	4,46
838,66	-6,92
838,84	31,69
839,01	2,23
839,18	-5,85
839,36	32,20
839,53	35,81
839,70	76,17
839,88	103,36
840,05	133,38
840,23	171,63
840,40	148,09
840,57	141,93
840,75	137,27
840,92	107,52
841,09	86,71
841,27	108,14
841,44	143,73
841,61	174,32
841,79	213,29
841,96	203,69
842,13	227,45
842,31	171,82
842,48	119,00
842,65	115,51
842,83	62,65
843,00	32,56
843,17	35,01
843,35	35,11
843,52	32,73
843,69	18,47
843,86	10,80
844,04	0,76
844,21	2,34
844,38	32,29
844,56	-10,62
844,73	-6,21
844,90	2,61
845,08	7,70
845,25	-11,38
845,42	15,64
845,60	-14,91
845,77	5,81
845,94	4,62
846,11	3,72
846,29	-4,99
846,46	0,33
846,63	7,10
846,81	-8,58
846,98	13,55
847,15	-5,64
847,32	0,87
847,50	-5,96
847,67	-11,08
847,84	-2,33
848,01	4,34
848,19	-8,67
848,36	1,58
848,53	6,99
848,71	17,13
848,88	-15,71
849,05	8,35
849,22	4,14
849,40	12,40
849,57	20,30
849,74	-14,41
849,91	4,30
850,09	-9,81
850,26	3,02
850,43	2,55
850,60	8,35
850,78	10,08
850,95	15,31
851,12	20,85
851,29	29,83
851,47	41,97
851,64	37,26
851,81	49,10
851,98	41,46
852,15	35,34
852,33	6,13
852,50	20,90
852,67	17,13
852,84	4,95
853,02	12,37
853,19	-18,85
853,36	11,75
853,53	6,73
853,70	2,78
853,88	21,08
854,05	-4,09
854,22	9,50
854,39	6,08
854,56	-1,15
854,74	1,88
854,91	-22,84
855,08	12,66
855,25	1,53
855,42	3,54
855,60	-2,45
855,77	8,48
855,94	9,29
856,11	-10,81
856,28	6,24
856,46	-3,45
856,63	6,12
856,80	4,42
856,97	-9,77
857,14	15,51
857,31	-8,15
857,49	1,69
857,66	6,19
857,83	-7,11
858,00	-4,63
858,17	10,92
858,34	-6,61
858,52	18,77
858,69	-10,17
858,86	13,81
859,03	-4,23
859,20	2,35
859,37	-0,89
859,55	-8,18
859,72	-15,01
859,89	-15,91
860,06	-6,44
860,23	16,82
860,40	5,93
860,57	12,18
860,75	-3,35
860,92	6,01
861,09	-9,69
861,26	20,46
861,43	-5,52
861,60	-18,82
861,77	-1,75
861,95	-4,00
862,12	1,45
862,29	-7,28
862,46	-4,40
862,63	-7,65
862,80	5,75
862,97	-18,50
863,14	-13,08
863,31	26,12
863,49	-22,78
863,66	-6,98
863,83	-4,21
864,00	-7,88
864,17	-3,99
864,34	-3,23
864,51	20,39
864,68	5,28
864,85	6,90
865,02	0,46
865,20	8,90
865,37	6,69
865,54	-4,93
865,71	-0,95
865,88	-6,32
866,05	-13,97
866,22	-8,66
866,39	13,45
866,56	-18,31
866,73	30,28
866,90	21,96
867,07	13,37
867,25	0,42
867,42	7,31
867,59	-2,69
867,76	4,99
867,93	-8,80
868,10	6,83
868,27	7,37
868,44	-12,48
868,61	-9,00
868,78	-15,45
868,95	-16,74
869,12	9,49
869,29	-1,37
869,46	6,76
869,63	4,56
869,80	13,12
869,97	-11,33
870,14	5,42
870,32	-13,19
870,49	-12,44
870,66	2,91
870,83	-20,30
871,00	-17,30
871,17	10,54
871,34	7,81
871,51	8,77
871,68	-9,21
871,85	-18,17
872,02	-5,60
872,19	-16,31
872,36	-17,87
872,53	-0,27
872,70	5,58
872,87	-0,57
873,04	8,14
873,21	-13,71
873,38	5,22
873,55	11,25
873,72	-10,43
873,89	2,95
874,06	-4,08
874,23	9,53
874,40	8,48
874,57	-16,12
874,74	-10,54
874,91	19,80
875,08	3,41
875,25	-9,33
875,42	5,86
875,59	-4,24
875,76	4,95
875,93	-18,72
876,10	14,01
876,27	-17,85
876,44	20,10
876,61	-11,98
876,78	2,62
876,95	-3,93
877,12	-5,37
877,29	6,43
877,46	-11,71
877,62	0,27
877,79	-14,10
877,96	0,95
878,13	-12,22
878,30	0,71
878,47	-18,56
878,64	-28,46
878,81	-4,48
878,98	-6,75
879,15	6,68
879,32	-3,15
879,49	3,17
879,66	-9,81
879,83	-2,39
880,00	-10,31
880,17	0,36
880,34	-8,76
880,51	10,22
880,67	-13,19
880,84	-10,01
881,01	16,12
881,18	-11,72
881,35	-18,58
881,52	-2,26
881,69	-25,86
881,86	0,87
882,03	7,29
882,20	-7,35
882,37	-1,65
882,54	11,18
882,70	-21,71
882,87	-9,71
883,04	-6,92
883,21	-2,58
883,38	10,65
883,55	-2,44
883,72	-1,11
883,89	-20,95
884,06	-6,12
884,23	2,32
884,39	-1,47
884,56	-8,55
884,73	0,46
884,90	2,93
885,07	12,08
885,24	-7,73
885,41	5,42
885,58	-18,90
885,74	-2,00
885,91	10,29
886,08	14,57
886,25	-7,34
886,42	9,16
886,59	0,63
886,76	5,12
886,93	19,02
887,09	2,47
887,26	-2,15
887,43	16,45
887,60	8,64
887,77	10,98
887,94	-20,12
888,10	-14,14
888,27	2,37
888,44	2,57
888,61	8,09
888,78	5,11
888,95	12,66
889,12	-14,65
889,28	-5,29
889,45	-3,63
889,62	10,63
889,79	9,66
889,96	-4,45
890,13	22,12
890,29	6,54
890,46	-2,21
890,63	-10,84
890,80	7,90
890,97	4,18
891,13	11,35
891,30	-7,51
891,47	4,00
891,64	3,31
891,81	-10,43
891,98	0,04
892,14	-10,71
892,31	16,07
892,48	-23,37
892,65	0,86
892,82	0,95
892,98	2,42
893,15	19,62
893,32	-3,41
>>>>>End Processed Spectral Data<<<<<
